##TITLE=QP00601
##FORMAT=SPECTACLE-ASCII V-1.2
##DATA TYPE=ULTRAVIOLET SPECTRUM
##SECOND TYPE=ULTRAVIOLET SPECTRUM
##DATE=01/21/18
##TIME=15:37:36
##SPECTROMETER/DATA SYSTEM=SPECTACLE
##XUNITS=NM EM
##YUNITS=ENERGY
##YFACTOR=1
##FIRSTX=220
##LASTX=410
##NPOINTS=96
##3DDATA=Equidistant
##ZUNITS=NM EX
##FIRSTZ=210
##LASTZ=400
##ZPOINTS=39
##XYDATA=(Y..Y)
##ZVALUE=210
1.457930
1.668930
1.486540
1.745820
1.853704
1.678467
1.531839
2.142787
2.107620
2.201796
1.690984
1.614690
2.150536
2.285838
2.294779
2.446771
2.161860
2.542734
3.142953
2.967715
3.334880
3.784895
3.549457
3.405809
3.559589
4.457831
4.214644
4.447699
4.656911
4.609823
4.912615
5.546808
5.320907
4.614592
5.529523
5.802512
5.782843
6.286502
6.559491
6.097555
5.779862
6.048679
6.751418
6.365776
7.376671
6.491542
7.047653
6.826520
7.243752
7.969737
7.937551
7.183552
7.023811
8.302927
7.191896
6.800890
9.074807
8.181930
8.595586
9.304881
8.936524
9.366870
7.956624
8.860826
9.993911
9.493828
11.357665
11.605620
12.605786
16.194582
18.144846
21.752715
25.566816
28.634667
32.310486
32.301545
32.271743
32.177567
31.184554
28.666854
24.767518
23.282766
20.910501
17.992854
14.268756
11.859536
11.588931
9.773970
9.336472
9.073615
8.745790
8.834600
8.928776
10.317564
8.629560
8.823872
##ZVALUE=215
3.995895
5.505681
4.432797
4.410744
3.271699
3.763437
3.393888
4.604459
4.173517
4.269481
3.593564
3.712773
3.394485
3.311634
2.599955
2.968907
2.347827
2.598763
2.879500
3.500581
3.818870
3.644824
3.175735
3.841519
4.358888
4.116893
4.273653
4.459620
4.404783
4.617572
5.804896
5.104542
5.471706
6.786585
6.044507
6.625652
6.868839
7.247925
6.746650
6.753802
6.707907
7.040501
6.726980
7.161498
6.056428
8.526444
7.175803
7.727742
8.303523
8.635521
8.482933
7.805824
8.301735
8.483529
8.738637
9.195805
9.335876
9.576678
9.537935
8.991957
8.864999
10.017753
9.028912
9.742975
10.034442
9.868741
11.219978
13.266802
13.612509
17.039776
18.704534
22.366643
26.584864
30.476451
31.579733
32.854676
30.598640
32.616854
31.759739
26.783943
25.585890
23.446679
20.224452
18.075705
15.105605
14.802814
11.859536
10.471940
9.684563
9.283423
9.143949
9.727478
9.109974
9.398460
9.334683
9.589791
##ZVALUE=220
18.189549
17.971992
20.693541
22.974610
19.352436
17.051697
12.919903
11.117458
9.685755
10.145903
10.182858
9.824634
9.048581
8.831620
7.943511
6.309748
5.827546
4.567504
4.300475
3.616810
4.440546
4.065633
3.650784
4.245639
4.226565
5.207658
5.006790
5.330443
5.161762
5.526543
5.517602
6.265640
7.281899
6.635785
7.320642
8.566976
6.640553
9.120703
7.719994
8.274913
8.853674
8.711815
7.969737
7.953644
9.070635
9.345412
8.426905
10.309815
10.413527
10.538697
8.828640
10.357499
9.839535
9.834766
9.241700
9.874701
11.105537
10.436773
10.044575
12.098551
11.074543
11.443496
10.346770
10.699630
11.923909
11.867881
12.213588
12.750626
15.007854
16.926527
19.133687
22.037625
25.865436
27.560592
33.742785
34.670830
31.372905
34.020543
30.994415
29.497743
27.241707
23.013949
21.890998
19.063950
17.663836
13.316870
13.828874
11.242628
11.787415
11.592507
11.721849
11.895895
10.009408
10.830760
11.029840
10.729432
##ZVALUE=225
32.211542
31.949878
47.065616
58.907866
72.447658
74.844956
72.015524
58.750510
44.855475
31.309724
25.004745
21.927953
21.203756
23.891926
24.362803
23.466945
19.676685
17.049909
11.358857
9.840727
6.933808
5.094409
4.196763
4.660487
5.146861
4.986525
5.872846
6.125569
6.090999
6.724596
7.182956
6.968975
7.990599
9.391904
8.466840
9.795427
10.780692
10.410547
11.219978
11.567473
12.083650
13.027787
11.982918
12.784600
12.440681
12.464523
12.536645
11.906624
12.149811
12.140870
12.061000
12.528896
13.448000
11.931658
12.108684
12.182593
12.874603
12.495518
13.683438
13.551712
13.703704
12.418628
13.408661
12.582541
13.830662
13.365746
13.832450
14.913678
17.272830
20.050406
22.029877
24.721622
26.134849
30.134916
30.854940
33.859611
31.566620
31.925440
28.771758
27.734637
26.321411
21.241903
20.664930
18.236637
16.896725
16.796589
16.267896
14.484525
14.086962
14.724731
14.238954
13.600588
13.752580
13.585687
14.160872
12.697577
##ZVALUE=230
28.805733
34.087896
53.993464
95.061660
128.279924
169.192553
186.695457
197.686553
189.118981
164.260864
114.982724
81.275702
53.892732
45.969486
45.394897
46.985745
49.750805
47.677755
43.781996
32.910705
27.789474
16.938448
14.269948
9.058714
7.166862
6.262660
6.768703
6.624460
7.003546
8.460879
8.578897
10.352731
10.071993
11.308789
13.237000
12.131929
13.926625
13.641715
14.926791
16.849637
15.957952
16.061664
15.764832
14.727712
14.767647
15.493631
15.876889
15.249848
15.338659
15.998483
15.963912
16.195774
13.986826
15.605688
14.116764
16.310811
16.340613
15.896559
15.366673
14.770627
16.960502
16.603470
17.734766
16.358495
16.522408
18.062592
17.105937
18.414855
20.258427
23.970604
24.947524
30.008554
31.155944
35.337806
37.176609
38.958788
37.845969
35.922527
33.699870
32.271743
29.464960
28.355718
27.327538
25.600791
23.962855
21.297932
21.217465
21.963716
21.952987
21.178722
20.482540
19.827485
19.889474
20.391941
20.882487
21.566749
##ZVALUE=235
12.229681
11.725426
35.293698
63.428879
125.641823
186.575651
281.517506
351.362824
404.915810
408.507586
374.706984
312.941670
246.033669
157.874823
111.001730
83.325505
74.681640
79.180002
80.142617
83.993673
77.855587
67.581534
51.056743
37.334561
23.045540
17.123818
11.425614
8.921623
9.069443
8.334517
9.980798
11.225939
10.834932
12.259483
14.398694
14.216900
15.748739
16.147494
17.253757
18.329620
16.810894
17.650723
20.657778
18.105507
18.928647
18.826723
19.417405
19.125938
16.853809
18.387437
16.916990
16.562939
16.183853
17.768741
16.170740
17.218590
17.988682
18.246770
17.446876
18.574595
17.415881
18.077493
18.819571
20.248890
22.344589
20.389557
23.381710
24.085641
24.573803
26.451945
30.077696
34.105778
36.776662
41.293502
41.167736
41.142702
42.970777
40.145516
38.529634
38.928986
35.831928
33.677816
33.921599
31.518936
29.976964
29.159784
30.819774
28.643608
27.426481
27.357936
28.902888
26.714802
25.798678
26.856661
27.686954
26.503801
##ZVALUE=240
1.627803
1.444817
4.868507
19.330978
42.144656
103.957653
178.197622
316.838622
430.865884
546.123981
640.102029
658.650994
600.214601
519.280434
375.605822
265.100598
166.116953
126.128793
104.292631
103.927851
111.182928
121.326447
117.668509
104.620457
85.254908
65.946579
48.870444
31.469464
22.209883
15.248656
12.652874
11.637807
12.482405
12.458563
13.935566
15.964508
14.929771
16.034842
16.647577
16.026497
15.902519
16.555786
16.088486
17.343760
14.803410
16.620755
16.293526
15.230775
17.023683
16.306639
16.446710
16.544461
16.489625
17.107725
15.831590
16.107559
15.933514
15.625954
15.989542
16.975999
18.252730
17.899871
18.187761
19.378662
20.777583
22.468567
21.539927
23.325682
26.387572
27.878881
32.013655
33.890605
36.595464
41.432977
42.116642
43.356419
43.849945
41.931868
43.064952
41.824579
39.075613
37.496686
39.264560
36.693811
38.154721
35.353899
34.576654
33.584833
34.019947
34.380555
33.149719
31.746626
32.409430
34.027696
32.122731
32.973886
##ZVALUE=245
1.271963
1.034737
0.983477
1.506805
2.913475
15.316606
37.607551
107.750893
191.862583
351.803899
500.508547
691.638589
801.550746
858.484507
818.638802
695.755482
571.843982
381.643772
260.486603
155.869722
114.966631
105.551481
120.028853
129.185915
131.708980
129.918456
115.540624
99.066496
72.648525
58.298707
36.398768
26.566982
17.133951
13.406873
11.274815
11.368990
11.312962
11.895895
11.652708
12.653470
12.452602
11.647940
12.076497
12.917519
11.884570
12.818575
12.860894
11.308789
12.144446
12.188554
11.888742
12.138486
11.995435
12.425780
12.302995
13.854504
13.012886
13.932586
13.999939
14.515519
14.362931
14.782548
15.828609
16.171932
18.475652
18.574595
18.605590
21.308661
22.083521
24.855733
27.005672
31.590462
32.401681
36.759973
37.365556
36.967993
38.057566
39.456487
38.427711
37.860870
35.425425
35.194755
36.546588
34.642816
34.948587
32.741427
34.094453
32.374859
32.386780
33.008456
33.287406
33.235550
31.934977
30.943751
33.679605
32.022595
##ZVALUE=250
1.174808
1.282692
1.241565
1.061559
1.173615
1.509786
3.116727
8.716583
36.556721
80.930591
200.613737
330.192447
494.193435
727.227926
869.479775
987.761021
989.494920
881.261826
751.845837
523.664951
366.928577
235.058665
137.134790
109.422803
110.955834
126.989484
140.083432
142.438412
137.832761
128.261447
110.941529
83.423853
59.643984
38.661957
27.211905
16.233921
12.542605
10.348558
10.277629
9.973645
10.515451
9.934902
10.776520
9.348989
9.845495
9.974837
9.723902
10.818839
10.305643
10.853410
10.136962
10.811687
11.333823
10.291934
10.694861
10.436773
11.123419
12.242794
11.717677
12.516975
12.847781
13.583899
13.867617
13.719797
16.043782
16.926527
16.895533
18.911958
21.738410
22.514462
23.579597
27.928948
28.200746
32.433867
30.721426
33.264756
34.997463
32.989979
33.956766
32.253861
32.714605
31.641722
31.854510
31.974912
30.919909
30.808449
29.839873
32.349825
30.831695
29.969811
30.366778
32.287836
31.321645
30.762553
30.369759
30.695796
##ZVALUE=255
1.138449
0.948906
1.147985
1.211762
1.285672
1.300573
1.587868
1.777411
1.808405
4.385710
26.708841
61.988831
132.496953
289.087892
450.577736
708.760619
900.316834
1015.943885
1015.943885
1015.943885
967.801809
771.158934
496.335626
316.808820
167.806745
119.998455
100.411773
109.713674
132.467747
144.606829
149.633884
144.646764
132.628679
107.092857
86.275935
59.366822
40.987730
24.532676
17.134547
11.769533
10.288954
10.196567
9.179711
9.650588
9.607673
10.044575
10.952950
10.054708
9.622574
9.395480
9.913445
9.997487
10.130405
9.783506
10.182858
10.836720
10.322928
11.223555
10.104775
10.738969
11.976957
11.262894
12.079477
13.233423
13.382435
14.725924
15.501976
16.872883
18.015504
19.913912
21.124482
23.921728
24.208426
26.274920
28.012991
29.277802
28.652549
29.731989
30.165911
28.291941
29.596686
29.243827
28.173923
27.288795
28.551817
27.484894
27.674437
28.398633
29.108524
29.658675
27.849674
27.903914
28.266907
28.706789
28.889775
28.786659
##ZVALUE=260
0.874996
0.983477
1.192689
1.223683
1.067519
1.267791
1.181960
1.372695
1.412630
1.532435
1.926422
2.563596
9.228587
41.000843
97.209811
238.476992
393.798947
660.618544
884.186625
1015.943885
1015.943885
1015.943885
1015.943885
974.844694
661.032796
450.323820
256.261826
155.784488
93.329549
88.785887
104.527473
131.815672
150.050521
155.704618
152.112842
135.126710
115.579963
86.255670
63.990951
40.232539
27.811527
17.522573
13.026595
10.493994
10.230541
9.442568
9.859800
9.939671
10.693669
9.519458
10.036826
10.807514
10.563731
10.079741
9.732842
9.991527
10.038614
10.239482
10.707974
10.995865
10.425448
11.722445
11.736751
12.102723
13.009906
13.647676
14.253855
15.110970
16.196966
17.667413
18.841624
21.104813
22.163987
24.234653
24.871826
25.866628
26.052594
26.026964
26.097894
25.550723
25.567412
25.404692
25.953650
25.282502
25.905967
25.187731
25.599599
25.694966
25.292635
25.591850
26.949644
26.600957
26.513934
26.850700
27.172565
26.974678
##ZVALUE=265
0.953674
0.949502
0.830889
0.891685
0.986457
1.284480
1.038909
1.044869
1.123548
1.185536
1.376867
1.626611
1.718998
1.991987
6.996989
24.049878
89.906454
180.380940
316.529870
607.857704
873.693824
1015.943885
1015.943885
1015.943885
1015.943885
1015.943885
897.237659
580.173731
379.047990
197.197795
117.014647
79.609752
88.715553
118.378997
136.883855
157.897472
162.319541
152.701735
138.723850
110.449791
87.803602
58.930516
42.258501
26.534796
18.201470
13.222694
11.618733
10.104775
10.641813
10.494590
10.647774
9.715557
9.684563
10.394454
9.909868
10.872483
9.998679
10.476708
10.433793
10.473728
10.741949
10.641813
10.973811
11.315942
12.466908
11.723638
12.994409
14.525652
14.901757
16.039610
17.369986
19.879937
20.833611
21.480918
21.582842
22.503734
22.864938
23.495555
24.517775
23.537874
23.839474
23.732781
23.683906
23.218989
24.176836
25.833845
24.002790
24.709702
25.969744
24.167895
23.943782
24.964809
24.849772
25.131702
24.887919
26.032925
##ZVALUE=270
0.990629
0.942945
1.057982
1.070499
1.028776
1.036525
0.957847
1.179576
1.290441
1.319647
1.580715
1.456738
1.342893
1.362562
1.798868
2.058744
2.831817
13.699532
43.345690
138.786435
285.021663
494.191647
865.405798
1016.078591
1016.078591
1016.078591
1016.078591
1016.078591
1016.078591
843.876600
586.930513
311.963558
176.973939
84.040761
70.414543
92.975497
113.770962
140.492916
158.646703
164.500475
159.336925
137.204528
117.950439
86.487532
63.841939
39.235950
28.959513
18.470883
14.779568
11.520982
11.586547
10.683537
11.065602
10.479689
10.486841
11.336803
10.463595
10.490417
10.828972
10.580420
10.849833
11.398792
11.541843
11.753440
11.596680
12.966990
13.317466
14.102459
14.776587
16.234517
17.278790
19.037724
19.975901
20.708442
21.670461
21.291971
22.658706
21.939874
22.894740
21.607876
21.977425
21.193624
22.300482
22.388697
22.461414
22.378564
23.413897
23.748875
22.616982
23.904443
22.783875
22.761822
24.176836
23.566484
23.716688
24.257898
##ZVALUE=275
0.759959
0.716448
0.786781
0.843406
0.698566
0.854731
1.195669
0.907779
1.111627
0.941753
0.877976
1.225471
1.070499
1.209974
1.471639
1.391768
1.774430
1.684427
1.643896
5.601645
22.859573
95.364451
210.555792
469.116569
743.912458
1015.943885
1015.943885
1015.943885
1015.943885
1015.943885
1015.943885
996.282101
733.324885
413.584709
240.899920
110.688806
68.112612
66.621900
87.623596
115.154982
136.883855
152.289867
161.528587
152.794719
140.053630
111.723542
89.514852
61.801672
43.693781
29.156804
20.503998
14.112592
11.892915
10.751486
10.966659
10.207891
10.371804
10.222793
10.706782
10.816455
11.438727
11.584759
11.861920
11.793971
12.126565
12.851954
13.222694
13.849735
14.784932
15.740991
17.061830
17.332435
18.997788
19.841790
20.057559
20.696521
21.201968
21.719933
21.331906
20.068884
20.764470
21.457672
20.963550
21.516681
21.535754
22.353530
21.224618
21.320581
21.742582
21.932721
21.915436
21.880865
21.189451
22.826791
22.452474
21.545887
##ZVALUE=280
0.681877
0.818968
0.667572
0.776649
0.559688
0.844598
0.756979
0.868440
1.016855
1.035929
1.062751
0.949502
1.062751
1.292825
1.132488
1.418591
1.383424
1.526475
1.601577
1.982450
1.960993
2.457500
15.813708
57.576895
183.113813
341.306925
655.980706
962.184668
1015.943885
1015.943885
1015.943885
1015.943885
1015.943885
1015.943885
926.150680
529.188514
317.667723
138.108730
73.688626
49.305558
61.722994
87.459683
110.253692
135.074854
150.054693
155.885816
150.305629
132.124424
114.531517
84.064603
64.018965
40.991902
29.303432
18.617511
14.114976
11.548996
10.871887
10.795593
10.904670
10.966659
10.825992
11.055470
11.428595
12.404919
12.317896
13.201833
12.943745
13.779998
14.316440
15.249848
16.591549
17.421842
17.535686
19.811988
19.548535
20.530820
20.185709
20.744801
20.948648
20.315647
20.887852
20.204782
20.390749
20.961761
20.720959
20.652413
21.449924
21.324754
21.841526
20.739436
20.479560
20.430684
21.524429
21.003485
20.589828
21.191835
##ZVALUE=285
0.592470
0.713468
0.561476
0.620484
0.654459
0.653863
0.706911
0.731945
0.671744
0.748634
0.862479
0.867844
0.940561
1.005530
1.179576
1.214743
1.172423
1.161695
1.221895
1.540780
1.463890
1.848936
2.012849
2.476573
8.347631
29.689670
106.981993
227.009058
499.434471
792.631507
1015.943885
1015.943885
1015.943885
1015.943885
1015.943885
1015.943885
1015.943885
730.813742
459.809899
216.430426
109.531879
47.048926
40.014982
56.917667
77.475905
109.142661
126.406550
143.660903
149.922967
145.035982
132.426620
109.524727
88.675618
61.535835
43.252707
27.810931
19.897819
13.254881
12.058616
11.740923
11.125803
11.737943
11.662841
12.049675
12.274981
13.148785
13.363957
14.059544
14.943480
16.111732
16.289949
17.051697
18.517971
19.453764
19.537807
19.388795
21.098852
20.498633
19.874573
21.023750
20.221472
20.007491
20.009875
20.551682
20.419955
20.287633
20.594001
20.542741
20.426512
20.825863
20.309687
20.225644
20.049810
20.625591
20.317435
20.954609
##ZVALUE=290
0.559688
0.464916
0.620484
0.610948
0.608563
0.497699
0.722408
0.677705
0.715852
0.729561
1.014471
0.709891
0.788569
0.809431
0.883937
0.819564
0.893474
1.045465
1.091957
1.141429
1.288652
1.485944
1.817942
1.655817
2.221465
2.315640
3.369451
11.947751
60.397387
146.770477
294.253826
621.675849
959.639549
1015.940905
1015.940905
1015.940905
1015.940905
1015.940905
1015.940905
953.823924
629.344583
313.569903
161.897540
60.255527
32.838583
38.456917
51.053762
74.432492
97.255707
122.277737
135.957003
145.135522
144.990683
126.642585
109.793544
82.640648
61.507821
42.034984
29.449463
19.108653
14.860630
12.296438
11.941791
11.580586
11.795759
12.771487
13.372898
14.415979
14.636517
15.450716
16.580820
17.649531
17.955899
19.303560
19.260645
20.186901
19.507408
19.863844
19.705892
19.511580
19.492507
19.904971
20.546913
20.272732
20.127892
20.566583
20.650625
21.030903
20.738840
20.671487
20.506978
20.166636
20.322800
20.481944
19.317865
19.921660
##ZVALUE=295
0.539422
0.725985
0.609756
0.479817
0.479817
0.655651
0.666976
0.601411
0.645518
0.638962
0.797510
0.715852
0.914931
0.743866
0.724792
0.960827
0.777841
0.939965
1.047850
1.017451
1.214743
1.065731
1.236796
1.664758
1.548529
1.695752
1.801848
2.178550
2.455711
5.069971
21.751523
97.310543
221.814513
528.486967
862.764716
1015.943885
1015.943885
1015.943885
1015.943885
1015.943885
1015.943885
1015.943885
842.002630
449.495912
246.735811
88.960528
41.053891
25.309920
32.230616
50.239563
68.351626
95.333457
113.191605
131.607652
138.460994
135.717988
123.493671
103.222728
83.721876
59.702992
42.720437
27.838945
21.277666
15.248656
14.314651
12.925863
13.234615
13.671517
13.580918
15.425682
16.244650
17.312765
18.241405
18.796921
19.275546
20.157695
19.923449
20.244718
20.006895
20.295978
20.575523
20.508766
20.488501
20.695925
20.849705
20.624995
21.334887
20.955801
20.858645
20.849705
20.567775
20.504594
20.046830
19.956827
19.558668
20.050406
##ZVALUE=300
0.507832
0.584722
0.800490
0.642538
0.578761
0.626445
0.672936
0.639558
0.423789
0.589490
0.603795
0.732541
0.733733
0.721812
0.799894
0.799894
0.726581
0.743866
1.003742
0.947714
0.970960
1.128912
0.995994
1.198649
1.315475
1.353621
1.456738
1.714826
1.772642
2.011657
2.548695
3.096461
14.841557
55.568814
189.321637
373.449922
769.031644
1015.943885
1015.943885
1015.943885
1015.943885
1015.943885
1015.943885
1015.943885
989.333987
674.054623
339.025855
177.977681
60.646534
26.972890
21.546483
28.044581
43.679476
60.808659
85.595846
104.633570
125.196576
131.752491
129.798651
122.011900
103.490949
84.820986
60.222745
45.876503
30.469894
22.445917
16.854405
15.366673
15.351772
15.534759
16.305447
17.429590
17.799735
18.674731
19.074678
19.545555
20.239949
20.485520
20.436645
20.745993
20.642877
20.631552
21.042824
21.070838
20.850897
21.523833
21.109581
21.269917
21.488667
20.669699
21.079779
20.875931
20.459890
20.249486
19.897819
20.161867
##ZVALUE=305
0.639558
0.654459
0.464916
0.509620
0.684857
0.587702
0.838637
0.724792
0.632405
0.643730
0.597835
0.628829
0.641942
0.875592
0.693798
0.616908
0.753999
0.922680
0.874996
0.902414
0.763535
1.061559
1.036525
1.135468
1.145601
1.223683
1.302958
1.315475
1.579523
1.707673
1.851916
2.143979
2.329946
2.875924
5.610585
38.944483
114.286542
321.353078
586.926937
1014.888883
1015.943885
1015.943885
1015.943885
1015.943885
1015.943885
1015.943885
1015.943885
834.054947
522.530675
235.399604
112.764835
35.023689
18.475652
19.390583
27.847886
44.002533
60.492754
84.350705
100.509524
117.808580
124.954581
125.589967
116.147995
98.367929
81.124902
58.419704
44.782758
31.564832
24.420619
19.539595
18.316507
17.440915
17.888546
18.874407
19.273758
19.293427
19.705892
20.260811
20.333529
21.235943
20.831823
21.302700
21.404624
21.337867
21.942854
22.141933
21.393895
21.922588
22.261739
21.741986
21.338463
20.792484
20.886660
20.933747
20.605922
20.132661
##ZVALUE=310
0.541806
0.555515
0.297427
0.635982
0.516772
0.533462
0.643730
0.682473
0.699759
0.643730
0.512600
0.564456
0.668764
0.787973
0.858903
0.519753
0.686646
0.843406
0.760555
0.799894
0.985861
0.902414
1.066923
0.991821
1.077652
1.038909
1.176000
1.031756
1.410842
1.387596
1.595616
1.756549
1.779795
1.991987
2.317429
2.566576
3.215671
18.044710
66.760778
227.909684
444.911718
888.488889
1015.943885
1015.943885
1015.943885
1015.943885
1015.943885
1015.943885
1015.943885
1015.943885
749.097466
368.619561
193.266869
65.354705
25.215745
14.867783
17.675757
26.496649
36.183596
55.312514
72.737932
94.857812
108.724833
119.295716
121.218562
111.392736
99.286437
79.278946
63.026547
44.815540
34.935474
26.530623
23.105741
20.725727
19.982457
20.264983
20.646453
20.208955
21.026731
21.068454
21.459460
21.731853
21.768808
22.297502
21.399856
22.373796
22.658706
22.241473
22.421479
22.209883
21.677613
21.382570
21.842718
21.360517
21.157861
21.218657
##ZVALUE=315
0.519753
0.425577
0.592470
0.677705
0.425577
0.546575
0.555515
0.469685
0.730753
0.568628
0.668764
0.594854
0.686646
0.607967
0.535846
0.610948
0.660419
0.766516
0.750422
0.745654
0.683665
0.878572
1.021624
0.823736
1.022816
0.910759
0.932813
0.881553
0.965595
1.224875
1.240969
1.432896
1.574755
1.564622
1.919866
1.943707
2.409816
2.438426
2.785921
7.358789
30.544996
133.430958
297.971368
671.587586
1012.351513
1015.929580
1015.929580
1015.929580
1015.929580
1015.929580
1015.929580
1015.929580
997.146964
545.005798
286.795497
98.842978
38.695931
15.631914
14.248490
18.415451
23.966432
37.758946
50.624609
71.493983
88.432431
107.136965
113.462806
116.651654
110.517740
94.343424
80.310702
61.834455
49.598813
35.558939
29.312968
24.177432
21.719933
20.983815
20.860434
21.110773
21.773577
21.630526
21.770597
22.028685
22.359490
22.407770
22.216439
22.740960
22.506714
22.395849
22.747517
21.938682
21.888614
21.880865
21.286607
21.031499
##ZVALUE=320
0.621676
0.366569
0.439882
0.495911
0.461936
0.492930
0.375509
0.497699
0.529885
0.546575
0.536442
0.548959
0.553727
0.420809
0.647902
0.695586
0.582933
0.667572
0.714660
0.781417
0.696778
0.882745
0.710487
0.861883
0.854731
0.690818
0.776649
0.899434
0.903606
0.995994
1.343489
1.235604
1.379848
1.303554
1.631975
1.751781
1.611710
1.839995
2.226830
2.439618
2.689958
3.940463
13.248920
77.172518
197.188854
515.219569
854.753852
1015.943885
1015.943885
1015.943885
1015.943885
1015.943885
1015.943885
1015.943885
1015.943885
695.880651
392.666459
165.126920
70.479512
20.403862
13.448596
14.027953
16.690493
23.285747
32.223463
49.409866
64.764619
84.030628
98.377466
109.927654
111.031532
105.871558
95.419884
76.622963
62.619448
45.469999
36.750436
28.819442
24.742484
21.720529
21.595955
21.627545
21.887422
22.558570
22.336841
22.442937
22.391677
22.088885
23.348927
22.368431
22.897720
21.933913
22.184849
21.579862
21.604896
21.412969
##ZVALUE=325
0.421405
0.510812
0.407696
0.470877
0.410676
0.507832
0.570416
0.561476
0.417829
0.442863
0.555515
0.584722
0.663996
0.678897
0.525713
0.434518
0.687838
0.526905
0.729561
0.548959
0.718832
0.747442
0.740886
0.812411
0.896454
0.809431
0.754595
0.789762
0.915527
1.018643
0.924468
1.009703
1.116991
1.270771
1.249909
1.356602
1.514554
1.875758
1.537800
1.890659
1.984835
2.344847
2.567768
3.020763
7.295609
55.328608
145.762563
379.419923
680.523515
1015.937924
1015.937924
1015.937924
1015.937924
1015.937924
1015.937924
1015.937924
1015.937924
926.635861
555.835962
238.944888
108.223557
31.561852
15.369654
12.562871
13.925433
18.057823
23.097992
33.406615
47.038794
67.226887
81.508756
98.009706
105.440617
108.458996
101.632476
87.754726
74.689984
58.337450
47.034621
35.058856
28.394461
24.724603
23.215413
22.728443
22.501945
22.490621
22.585988
22.543669
22.118688
22.238493
22.349954
21.759868
21.588802
21.641850
21.927953
21.653771
##ZVALUE=330
0.505447
0.395775
0.322461
0.594854
0.352859
0.345707
0.357628
0.499487
0.393987
0.518560
0.448823
0.702739
0.543594
0.417829
0.383854
0.594854
0.485778
0.657439
0.566840
0.623465
0.535846
0.552535
0.720620
0.680685
0.848770
0.885725
0.792742
0.850558
0.731945
0.842810
0.845790
0.865459
1.076460
1.076460
1.036525
1.114607
1.337528
1.180768
1.464486
1.506805
1.525879
1.473427
1.911521
1.994967
2.517700
3.013611
4.112720
20.373464
70.174932
238.543749
464.413762
943.849683
1015.943885
1015.943885
1015.943885
1015.943885
1015.943885
1015.943885
1015.943885
1015.943885
779.521465
360.420942
174.461603
56.540966
21.856427
12.998581
12.938976
14.477968
17.964840
24.866462
32.948852
48.231483
61.693788
81.288815
92.648864
100.928545
102.620721
95.311999
86.236596
70.385933
56.997538
43.826699
36.128759
29.279590
25.831461
24.010539
22.987723
21.789670
21.787882
21.914840
21.840930
21.411777
21.784902
21.194816
21.547675
21.042824
##ZVALUE=335
0.491738
0.562668
0.563860
0.512600
0.477433
0.512600
0.571609
0.582933
0.543594
0.654459
0.699759
0.531673
0.589490
0.649691
0.606775
0.537634
0.694990
0.687838
0.675917
0.746846
0.602603
0.697970
0.777841
0.747442
0.866652
0.822544
0.874996
0.819564
0.925660
0.954866
0.913739
1.129508
1.034737
1.254678
1.098514
1.060963
1.162887
1.293421
1.347661
1.751781
1.524687
1.596808
1.691580
1.987815
2.028942
2.433658
2.594590
2.938509
3.286600
9.485483
38.030744
152.086616
325.886011
733.487010
1016.049981
1016.049981
1016.049981
1016.049981
1016.049981
1016.049981
1016.049981
1016.049981
1016.049385
552.983880
280.423760
86.838603
32.577515
14.790893
13.867617
14.646649
15.519857
19.305944
24.090409
34.798980
45.549870
61.805844
74.433684
87.836981
95.321536
96.314549
91.476440
79.579949
69.621801
56.509972
45.961738
36.111474
30.120611
25.285482
23.630857
22.019744
21.875501
21.412969
21.318793
20.912886
21.157861
20.405650
##ZVALUE=340
0.426769
0.362992
0.445843
0.481606
0.334978
0.475645
0.496507
0.385642
0.347495
0.572801
0.385642
0.546575
0.455976
0.597835
0.515580
0.600815
0.508428
0.570416
0.281930
0.556707
0.563860
0.587702
0.585914
0.713468
0.600815
0.528693
0.662804
0.777841
0.720620
0.689626
0.749826
0.883937
0.979900
1.012683
0.830889
0.863671
1.085997
1.063943
0.917912
1.031756
1.218915
1.263618
1.360774
1.461506
1.612902
1.700521
1.921654
2.013445
2.393723
2.697706
3.104806
5.967617
23.511648
116.715431
278.417468
656.050444
1005.736589
1015.943885
1015.943885
1015.943885
1015.943885
1015.943885
1015.943885
1015.943885
1015.943885
727.409720
387.473702
135.832429
50.244927
17.631650
14.243722
14.151931
15.179515
16.443729
18.912554
25.779605
32.434464
45.439601
56.992769
73.044896
81.987977
91.115832
90.489984
86.136460
79.283714
65.356493
55.701733
44.086576
36.194921
29.024482
24.397969
22.009611
20.525455
20.436645
19.865632
20.065904
##ZVALUE=345
0.472665
0.290871
0.375509
0.468493
0.516772
0.379682
0.477433
0.564456
0.562668
0.617504
0.325441
0.524521
0.381470
0.556707
0.614524
0.489950
0.448823
0.471473
0.457764
0.511408
0.568628
0.624657
0.536442
0.464916
0.497699
0.748634
0.795722
0.724792
0.672936
0.721812
0.724792
0.809431
0.634789
0.811815
0.727773
0.789762
0.843406
0.753999
1.034737
0.994802
1.117587
1.088977
1.303554
1.272559
1.310706
1.403689
1.388788
1.804829
1.888871
1.964569
2.126694
2.506971
2.740622
3.361702
7.954836
53.371787
151.725411
411.514640
745.359659
1015.943885
1015.943885
1015.943885
1015.943885
1015.943885
1015.943885
1015.943885
1015.943885
913.237929
511.994958
191.492438
79.679489
24.853945
15.404820
14.601946
14.510751
14.768839
15.812516
18.399954
22.735000
32.135844
40.808916
56.151748
64.974427
75.872540
82.471967
84.826946
82.832575
74.811578
65.995455
53.534508
44.078827
33.792853
28.112531
23.182631
21.336675
19.699931
##ZVALUE=350
0.443459
0.403523
0.400543
0.563860
0.353456
0.503659
0.426769
0.511408
0.516772
0.582933
0.616908
0.677705
0.682473
0.575781
0.545979
0.401735
0.453591
0.527501
0.522733
0.580549
0.552535
0.586510
0.752807
0.472665
0.489950
0.710487
0.584722
0.683665
0.693798
0.710487
0.774860
0.723600
0.759959
0.681877
0.762939
0.823736
1.045465
0.986457
0.993609
1.140833
1.029968
1.035929
1.230836
1.101494
1.047850
1.331568
1.194477
1.539588
1.643896
1.695752
1.776814
2.221465
2.436638
2.621412
2.922416
3.299713
4.922748
28.685927
96.374750
312.409401
607.466698
1015.943885
1015.943885
1015.943885
1015.943885
1015.943885
1015.943885
1015.943885
1015.943885
1015.943885
704.642534
301.694870
134.930611
35.080910
16.990900
14.179945
14.001727
13.970733
13.975501
15.694499
17.605424
22.770762
28.819442
38.702488
47.549605
59.959888
68.178773
75.990558
78.282952
76.138973
70.722699
59.848428
51.660538
40.379763
33.517480
27.018785
##ZVALUE=355
0.469685
0.605583
0.503659
0.539422
0.513792
0.418425
0.427961
0.403523
0.566840
0.520945
0.508428
0.706911
0.470877
0.540614
0.635982
0.481606
0.582933
0.600815
0.386834
0.727773
0.659823
0.587702
0.597835
0.564456
0.575781
0.640750
0.679493
0.666976
0.509620
0.634789
0.886917
0.682473
0.658631
0.775456
0.619888
0.824928
0.962615
0.838637
0.880957
0.844598
0.941753
1.034737
1.014471
1.135468
1.284480
1.170635
1.373887
1.277924
1.417994
1.392961
1.757741
1.864433
1.802444
2.039671
2.291799
2.642870
2.768636
3.266931
3.689528
13.634562
53.262711
206.415653
423.114896
889.132023
1015.945673
1015.945673
1015.945673
1015.945673
1015.945673
1015.945673
1015.945673
1015.945673
876.846910
388.916731
182.647705
50.642490
19.978881
13.522506
12.888908
12.986660
13.179779
13.477802
14.161468
16.544461
19.563437
26.036501
32.194853
43.145418
51.444769
61.765909
67.095757
70.476532
69.546700
63.279867
56.747794
46.863556
##ZVALUE=360
0.558496
0.523925
0.638962
0.533462
0.379682
0.454783
0.633597
0.410676
0.644922
0.373721
0.539422
0.545979
0.506639
0.614524
0.564456
0.554919
0.577569
0.554919
0.705719
0.650883
0.807643
0.748634
0.726581
0.497699
0.834465
0.681877
0.764728
0.720620
0.755787
0.626445
0.744462
0.771880
0.760555
0.882745
0.777841
0.909567
1.029968
0.850558
1.095533
1.025796
1.018643
0.971556
1.148582
1.216531
1.165867
1.332760
1.242757
1.183748
1.266599
1.418591
1.587868
1.569986
1.654625
1.977682
2.057552
2.198815
2.299547
2.561808
2.549887
3.093481
3.645420
6.240606
23.095608
111.537576
266.944766
660.862923
1015.421748
1015.982628
1015.982628
1015.982628
1015.982628
1015.982628
1015.982628
1015.982628
977.154970
499.407649
257.771611
89.223981
32.453537
13.584495
12.560487
12.200475
12.115836
12.383461
12.155771
13.102889
14.173985
17.330647
20.574927
27.393699
35.153627
45.118928
52.856803
60.982704
63.763857
63.570738
##ZVALUE=365
0.453591
0.553727
0.525713
0.431538
0.614524
0.667572
0.541806
0.558496
0.529885
0.711679
0.476837
0.686646
0.685453
0.784993
0.680685
0.406504
0.642538
0.648499
0.512600
0.617504
0.730753
0.553727
0.619888
0.550747
0.641942
0.727773
0.682473
0.754595
0.733733
0.647902
0.719428
0.762939
0.888705
0.880957
0.819564
0.731945
0.685453
0.911951
0.727773
0.907779
0.835657
1.095533
1.151562
1.072884
1.161695
1.191497
1.048446
1.262426
1.125932
1.428723
1.306534
1.284480
1.427531
1.697540
1.641512
1.605749
1.845956
1.858473
2.209544
2.533793
2.539754
3.220439
3.497601
4.059672
9.296536
58.791637
162.509680
426.972508
781.546831
1015.908718
1015.908718
1015.908718
1015.908718
1015.908718
1015.908718
1015.908718
1015.908718
772.098899
422.954559
147.644877
51.622987
14.853477
12.059808
11.342764
10.941625
10.849833
10.913610
11.180639
11.310577
12.410879
14.335513
18.276572
23.286939
30.909777
38.219690
47.134757
##ZVALUE=370
0.365973
0.405908
0.554919
0.331998
0.384450
0.568628
0.470877
0.358820
0.506639
0.440478
0.621676
0.494719
0.229478
0.537634
0.562668
0.524521
0.533462
0.495911
0.518560
0.529885
0.595450
0.483990
0.538826
0.587702
0.521541
0.719428
0.665784
0.571609
0.569820
0.680685
0.622869
0.566840
0.739694
0.486970
0.658631
0.548959
0.539422
0.725985
0.858903
0.687838
0.792742
0.865459
0.740886
0.808835
0.818968
0.957847
0.920892
0.952482
1.110435
0.982881
1.167655
1.204610
1.333952
1.418591
1.452565
1.518726
1.359582
1.536608
1.644492
1.785755
1.858473
2.148747
2.321601
2.719760
2.993941
3.412962
5.374551
31.441450
108.559728
350.674391
652.796030
1015.919447
1015.919447
1015.919447
1015.919447
1015.919447
1015.919447
1015.919447
1015.919447
819.468498
464.759469
182.631612
79.736710
24.262667
11.842847
10.048747
10.046959
9.828806
9.805560
9.622574
9.858608
10.501742
11.251569
13.040900
15.817881
20.895600
##ZVALUE=375
0.429749
0.356436
0.303984
0.336766
0.230670
0.489950
0.423789
0.470877
0.411868
0.274777
0.329614
0.559688
0.510812
0.481606
0.467896
0.461936
0.395775
0.470877
0.580549
0.514984
0.582933
0.421405
0.434518
0.481606
0.407696
0.491738
0.500679
0.675917
0.485778
0.634789
0.601411
0.628829
0.699759
0.600815
0.651479
0.620484
0.680685
0.675917
0.550747
0.616908
0.751615
0.786781
0.799894
0.721812
0.747442
0.740886
0.894666
0.852942
0.775456
0.925660
1.010895
1.058578
1.053810
1.261830
1.171827
1.259446
1.094937
1.460910
1.310706
1.748800
1.549721
1.682639
1.720786
1.917481
2.105832
2.558827
2.645850
3.163815
3.988743
13.746619
51.831603
203.098655
451.614857
978.790522
1015.943885
1015.943885
1015.943885
1015.943885
1015.943885
1015.943885
1015.943885
1009.914875
682.942867
340.004563
166.693926
47.585964
17.310977
9.864569
9.674430
9.321570
9.175539
9.102821
9.096861
9.452701
9.367466
10.218620
##ZVALUE=380
0.467896
0.300407
0.369549
0.247955
0.365973
0.443459
0.512600
0.303984
0.278950
0.287890
0.434518
0.381470
0.482798
0.472665
0.443459
0.575781
0.341535
0.339746
0.560880
0.407696
0.394583
0.429749
0.479817
0.485778
0.459552
0.457764
0.428557
0.543594
0.431538
0.342727
0.603795
0.621676
0.671744
0.623465
0.559688
0.508428
0.629425
0.568628
0.612736
0.555515
0.703931
0.808835
0.647902
0.624657
0.718832
0.723600
0.648499
0.772476
0.985861
0.908971
0.867844
0.664592
0.683665
0.824928
0.937581
0.879765
1.114607
1.028776
1.238585
1.210570
1.443624
1.572967
1.566410
1.563430
1.584888
1.852512
2.155900
2.447963
2.806783
3.347993
3.969669
6.668568
25.502443
131.834745
323.221684
790.558457
1015.944481
1015.944481
1015.944481
1015.944481
1015.944481
1015.944481
1015.944481
1015.945077
929.747820
458.548665
234.931707
79.150796
28.670430
10.781884
8.703470
8.540750
8.234978
8.121729
8.331537
8.258820
##ZVALUE=385
0.310540
0.272989
0.205636
0.344515
0.509620
0.231862
0.324845
0.282526
0.384450
0.444651
0.217557
0.476837
0.431538
0.331998
0.328422
0.340939
0.432730
0.321865
0.383854
0.365973
0.287890
0.386834
0.395775
0.473857
0.504851
0.358820
0.285506
0.509620
0.501871
0.528693
0.373721
0.513792
0.402927
0.420809
0.510812
0.388622
0.440478
0.609756
0.538826
0.486970
0.537634
0.613928
0.636578
0.594854
0.622869
0.540614
0.751615
0.609756
0.510812
0.566840
0.657439
0.758767
0.657439
0.872612
0.875592
0.976920
0.781417
0.981688
1.110435
1.102686
1.078844
1.166463
1.288652
1.265407
1.404881
1.571774
1.610518
1.954436
2.157688
2.584457
2.774596
3.276467
3.400445
4.403591
11.316538
69.949627
190.345049
500.620008
902.073979
1015.943885
1015.943885
1015.943885
1015.943885
1015.943885
1015.943885
1015.943885
1015.943885
714.340806
403.741598
158.863664
58.976412
13.993979
8.595586
7.832646
7.503629
7.643700
##ZVALUE=390
0.304580
0.299811
0.440478
0.367761
0.315905
0.246763
0.323653
0.240803
0.249743
0.232458
0.296831
0.362992
0.323653
0.377893
0.270605
0.246763
0.261664
0.356436
0.323653
0.406504
0.448823
0.396967
0.263453
0.202656
0.487566
0.376701
0.340939
0.559688
0.486970
0.459552
0.497699
0.512600
0.427961
0.474453
0.302792
0.430942
0.582933
0.510812
0.359416
0.394583
0.397563
0.577569
0.512600
0.654459
0.516772
0.534654
0.664592
0.659823
0.672936
0.803471
0.708699
0.547767
0.925660
0.708699
0.820756
0.757575
0.651479
0.780821
1.008511
0.822544
0.995994
0.941753
1.110435
1.141429
1.154542
1.393557
1.542568
1.754761
1.992583
2.018809
2.505779
2.641678
2.658963
2.865791
3.134608
3.224611
6.568432
29.842854
144.519806
339.532495
810.335875
1015.943885
1015.943885
1015.943885
1015.943885
1015.943885
1015.943885
1015.943885
1015.943885
1004.167795
559.397936
288.169980
90.608001
29.562712
8.884668
7.623434
##ZVALUE=395
0.208616
0.097752
0.373721
0.210404
0.178814
0.246763
0.213981
0.299811
0.240803
0.353456
0.323653
0.358820
0.373721
0.339746
0.425577
0.280738
0.338554
0.201464
0.246763
0.244975
0.279546
0.236630
0.450611
0.296831
0.460744
0.271797
0.278950
0.320673
0.299811
0.432730
0.456572
0.364780
0.329614
0.459552
0.427961
0.494719
0.333786
0.557899
0.426769
0.581741
0.469685
0.436902
0.575781
0.559688
0.649691
0.685453
0.657439
0.574589
0.608563
0.653863
0.638962
0.659823
0.729561
0.659823
0.784993
0.705719
0.748634
0.973940
0.806451
0.882745
0.935793
1.076460
0.972748
1.153946
1.152754
1.406670
1.382828
1.697540
1.700521
2.022982
2.116561
2.291799
2.406836
2.503991
2.501607
2.431870
2.740622
3.223419
4.610419
16.465783
95.981956
238.157511
580.560565
967.894793
1015.944481
1015.944481
1015.944481
1015.944481
1015.944481
1015.944481
1015.944481
1015.944481
701.463819
375.636816
133.879781
53.115487
##ZVALUE=400
0.257492
0.189543
0.288486
0.286698
0.429749
0.234842
0.266433
0.313520
0.215769
0.150800
0.305772
0.325441
0.322461
0.314713
0.339746
0.226498
0.353456
0.443459
0.362992
0.174642
0.325441
0.297427
0.327826
0.366569
0.202656
0.222921
0.279546
0.437498
0.282526
0.385642
0.358820
0.334978
0.304580
0.486970
0.479817
0.483990
0.427961
0.505447
0.482798
0.366569
0.470877
0.604987
0.455976
0.500679
0.547767
0.450611
0.545979
0.646710
0.465512
0.633597
0.721812
0.555515
0.652671
0.754595
0.711679
0.724792
0.851750
0.851750
0.859499
0.926852
0.895858
0.994802
0.989437
0.942945
1.202822
1.170635
1.264811
1.432896
1.854897
1.999736
2.048612
2.131462
2.230406
2.248883
2.131462
2.207756
2.291799
2.250671
2.407432
3.160834
3.627539
11.077523
42.986870
161.395669
352.672935
811.108947
1015.943885
1015.943885
1015.943885
1015.943885
1015.943885
1015.943885
1015.943885
1015.943885
917.613506
459.792018
##END
