##TITLE=QP00602
##FORMAT=SPECTACLE-ASCII V-1.2
##DATA TYPE=ULTRAVIOLET SPECTRUM
##SECOND TYPE=ULTRAVIOLET SPECTRUM
##DATE=01/21/18
##TIME=15:41:43
##SPECTROMETER/DATA SYSTEM=SPECTACLE
##XUNITS=NM EM
##YUNITS=ENERGY
##YFACTOR=1
##FIRSTX=220
##LASTX=410
##NPOINTS=96
##3DDATA=Equidistant
##ZUNITS=NM EX
##FIRSTZ=210
##LASTZ=400
##ZPOINTS=39
##XYDATA=(Y..Y)
##ZVALUE=210
1.181960
1.276731
1.447797
1.913905
1.725554
1.940727
2.314448
1.657605
2.546906
2.404451
1.914501
2.494454
2.429485
2.441406
2.599955
2.710819
2.447963
2.792478
3.920794
3.318787
3.436804
3.805757
4.094839
4.924536
4.330873
4.778504
4.878640
5.837679
4.907846
5.848408
5.186796
5.568862
6.193519
6.204844
6.861687
6.757975
7.527471
6.765723
7.353425
6.936789
8.118749
8.526444
7.310510
8.382797
8.517504
8.820891
8.582473
8.528829
10.200739
8.460879
10.062456
10.962486
10.501742
9.914637
9.953976
10.549426
9.541512
9.705424
9.801984
10.506511
10.515451
11.370778
10.073781
10.092854
11.983514
11.741519
12.318492
12.878776
16.018748
19.514561
23.428798
27.992725
31.254888
37.172437
41.238666
42.336583
42.180419
44.246912
44.220686
39.253831
35.325885
34.924746
29.325485
22.896528
20.963550
15.558600
14.139414
11.511445
12.440681
12.836456
10.918975
10.322928
11.167526
11.385679
10.670424
11.353493
##ZVALUE=215
5.838871
5.276799
5.378723
4.640818
4.332662
3.762841
3.445745
4.229546
4.475713
3.725886
3.451705
3.577471
3.829598
3.385544
2.601743
2.763867
2.873540
2.683997
3.187656
3.493428
3.359914
4.145503
4.802942
4.361868
4.137754
3.515482
4.698634
5.069971
6.586909
5.748868
6.010532
6.307960
6.505847
6.558895
6.599426
6.850958
6.941557
8.196831
8.109808
7.335544
7.990599
7.739663
8.199811
9.056926
8.532405
8.685589
9.254813
9.833574
9.525418
9.237528
9.108782
9.305477
9.701848
9.626746
9.776950
10.802746
10.912418
10.739565
10.388494
10.123849
10.757446
10.842681
10.674000
12.174845
10.600686
12.200475
11.950731
14.007688
14.434457
18.364787
21.252632
25.744438
30.299425
33.607483
36.520958
38.717985
40.127635
39.392710
33.497810
35.391450
31.954646
26.817918
27.255416
22.510886
18.991828
15.497804
13.787746
12.946725
12.638569
11.331439
11.501908
10.876656
9.793639
10.234714
10.505915
11.625886
##ZVALUE=220
19.773841
18.291473
20.796657
23.476481
23.485422
21.126866
14.548898
12.339950
10.000467
9.446740
11.286736
11.118650
10.975599
9.247661
8.581877
6.962419
5.058646
5.066991
3.547668
4.520416
3.464818
4.449487
4.959702
4.421473
4.327893
4.872680
5.659461
5.522966
6.355643
5.602837
5.793571
6.033778
5.814433
7.348657
7.823706
8.510947
9.029508
8.445978
8.561611
9.644628
10.005832
9.552836
10.224581
10.297894
10.490417
9.739995
10.269880
10.664463
11.380911
9.738803
10.823607
11.165738
11.786819
12.613535
10.707974
11.254549
11.421442
11.353493
11.800528
12.193918
13.523698
10.869503
12.484789
11.760592
12.745857
12.453794
13.618469
15.266538
16.018748
17.991662
22.332668
25.679469
29.557943
32.771826
34.473538
37.879944
37.145615
38.708448
36.942959
32.526851
32.781959
28.687716
27.585626
23.981929
21.337867
17.228723
15.746951
13.989806
14.978647
13.324618
12.517571
13.099909
12.069941
12.058616
13.344884
12.006760
##ZVALUE=225
32.092929
36.574602
53.916574
73.580742
78.909993
82.576871
77.509880
61.434507
50.670505
36.065578
25.094748
21.048784
23.859739
23.401976
25.492907
23.687482
20.099878
16.283989
15.086532
8.825660
6.997585
5.415678
5.574822
4.926920
5.115867
5.282760
6.252527
6.082654
6.273985
7.097721
7.813573
8.022785
9.384751
9.407997
9.392500
11.118650
12.281537
11.936426
11.965632
12.309551
13.153553
12.997985
13.721585
13.737679
14.562607
13.016462
12.483597
13.171434
12.532473
13.703704
12.505651
12.551546
12.787580
13.174415
13.386607
14.005899
13.914704
13.671517
14.250875
13.824701
14.170408
13.306737
13.063550
14.271736
14.465451
14.824867
14.783740
16.783476
18.108487
20.968914
22.736788
27.865767
29.828548
31.724572
35.317540
34.234524
34.539700
36.016703
32.476783
30.434728
29.395819
25.196671
25.075674
22.566915
21.787882
17.457604
17.089844
18.212795
15.867949
15.395880
15.009642
14.867783
16.684532
14.654994
17.173886
15.582442
##ZVALUE=230
30.850768
34.055710
57.424903
101.222992
135.470629
175.994635
198.257565
208.373666
201.141834
170.566440
119.806528
85.980892
57.003498
48.294663
43.938756
46.153665
50.226450
49.930811
42.970777
35.070777
30.600429
18.002987
13.286471
9.450912
6.906986
6.447434
7.144809
8.117557
7.957816
8.172989
9.290576
10.074973
10.892749
12.755990
13.481975
14.270544
14.767647
15.609860
17.477870
17.366409
19.039512
16.424656
16.885996
17.625690
17.723441
17.575622
16.852617
18.383861
16.923547
16.853809
17.266870
16.505718
16.654730
16.070604
16.194582
15.665889
16.584992
18.065572
16.883612
17.406940
18.361807
18.033981
19.415617
18.452406
18.542409
20.080805
20.127892
22.781491
24.623871
25.932789
29.168725
31.658411
36.176443
39.423704
40.669441
41.287541
38.814545
38.680434
38.862824
36.166906
33.486485
32.355785
30.203462
26.937723
25.754571
23.210645
22.837520
23.209453
21.791458
22.732615
21.100640
21.199584
21.469593
23.595691
20.088553
21.259785
##ZVALUE=235
17.103553
18.989444
36.979914
92.863441
148.157477
237.686634
304.871798
403.419733
447.043777
451.799631
396.700501
331.740975
227.990746
167.542696
110.101700
86.250901
75.235963
75.079799
82.389712
86.899996
80.376863
67.579746
54.545999
37.126541
25.582910
17.400980
13.247728
9.603500
9.678602
8.602738
11.435747
11.274815
13.197660
13.833642
15.112758
17.479658
16.413927
19.476414
17.834902
19.182563
19.549727
20.252466
19.314885
18.673539
20.319819
20.240545
17.410517
19.449592
20.185709
18.352866
18.568635
19.701719
18.907785
18.871427
18.780828
17.913580
17.892718
19.863844
17.464757
18.335581
17.581582
19.792914
20.118952
21.008849
20.683408
22.656918
23.329854
24.255514
27.015805
29.479861
32.671690
37.452579
40.472746
44.589639
44.530630
46.464801
45.543909
44.786930
43.799877
40.311813
41.039586
37.389994
35.912991
34.866929
33.367872
31.064749
31.574965
29.661655
28.462410
29.317737
28.308630
29.702783
29.141903
30.338764
27.628541
29.122829
##ZVALUE=240
1.378655
2.076626
5.794764
17.410517
53.363442
106.755495
226.779580
345.573425
553.445816
675.586462
798.147917
789.800882
740.111470
587.868690
451.709628
279.115438
193.516612
126.412511
104.086995
104.146600
114.416480
122.660995
115.278959
105.643868
81.500411
67.532659
47.971606
34.961700
22.579432
15.729666
12.819767
13.659596
13.208985
14.661551
13.904572
14.180541
16.788840
17.100573
18.393993
17.798543
17.458797
18.151999
17.791986
17.699599
19.550920
18.760562
18.990636
18.103719
16.964674
17.259717
17.785430
16.626716
17.262697
18.858910
17.820597
18.147826
18.290877
19.205809
18.499494
18.701553
18.701553
19.730926
20.012856
21.295547
21.234751
24.140477
23.396611
27.021766
30.584931
32.623410
36.780834
37.899613
42.771697
42.907000
46.315789
46.642423
45.338869
45.663714
46.286583
44.660568
43.242574
40.688515
41.630864
38.690567
38.995743
35.451651
38.386583
36.649704
35.335422
35.922527
34.184456
34.197569
33.434629
33.891797
33.061504
34.224987
##ZVALUE=245
1.675487
1.514554
1.395941
1.837611
5.098581
13.671517
47.102571
101.657510
231.644511
367.905498
590.925813
742.005706
867.548585
935.961604
899.741650
767.010450
629.122853
426.479578
296.316743
167.853832
121.893883
105.424523
115.968585
130.598545
136.692524
130.857825
117.278695
99.391937
74.917674
55.721998
37.393570
27.414560
20.178556
15.190840
13.636947
12.819767
12.869835
12.045503
13.994575
13.615489
13.751984
14.767647
14.583468
13.832450
12.842417
14.041662
13.555884
14.051795
13.850927
13.678670
13.444424
13.035536
14.143586
13.592839
13.505816
14.848709
14.583468
15.587807
14.874935
14.848709
16.113520
16.564727
19.711852
18.721819
18.729568
21.065474
21.423697
22.433996
25.078654
27.895570
31.526685
35.574436
37.892461
42.898655
41.660666
43.196678
43.519735
42.614937
43.041706
41.062832
39.683580
37.287474
37.360787
36.520958
36.725998
36.110878
35.096407
34.868717
35.782456
36.335588
37.706494
34.928918
33.738613
34.995675
34.546852
34.842491
##ZVALUE=250
1.444817
0.904799
1.144409
1.297593
1.544952
1.609921
2.327561
9.757876
28.957725
69.799423
184.902549
340.702534
571.481586
754.913688
950.634480
1015.943885
1015.943885
978.662968
845.820904
595.938563
406.495929
220.064521
145.615935
108.082891
109.276772
129.187703
141.422749
147.073865
141.763687
124.761462
107.632875
83.597898
62.135458
38.008690
26.109815
18.275976
13.831854
11.182427
11.799932
11.115670
11.548996
11.372566
11.253953
11.157990
11.674762
12.229681
11.303425
12.212992
12.056828
11.723638
12.220740
10.986924
12.056828
11.294484
12.672544
13.105869
12.608767
12.426972
13.314486
13.847947
14.071465
14.335513
14.905930
15.434623
16.911626
16.930699
18.616915
20.927787
22.747517
24.566650
27.034879
29.427409
30.271411
35.855770
36.842823
37.637949
38.703680
37.013888
36.909580
36.404729
36.095977
34.320951
33.507943
33.749938
32.746792
33.578873
33.781528
32.296777
30.140877
32.079816
31.759739
33.922791
32.931566
32.416582
32.823682
33.163428
##ZVALUE=255
1.242757
1.386404
1.469851
1.249909
1.676679
1.495481
1.765490
1.777411
1.900792
4.915595
24.650693
67.411661
138.790011
307.141542
488.106608
772.742033
969.600677
1016.072631
1016.072631
1016.072631
1005.538702
834.567547
522.085428
341.845751
177.152753
121.249557
100.631714
108.758807
131.095648
144.779682
152.690411
147.900581
138.247609
108.002424
84.013939
60.600638
43.300986
26.584864
17.391443
13.390779
12.122989
10.946989
10.707974
11.082888
11.386871
11.997819
10.805726
11.048913
10.751486
11.220574
10.789633
12.077689
11.268854
10.582805
11.712909
11.219978
12.255907
12.043715
12.498498
12.494922
13.690591
13.523698
13.238788
15.246868
14.844537
16.674995
16.727448
19.085407
18.906593
23.962855
23.854971
27.105808
29.322505
30.473471
31.752586
33.095479
33.397675
33.144951
33.273697
30.711889
29.996634
30.766726
31.337738
31.376481
30.636787
29.784441
29.856563
30.242801
30.395985
30.298829
30.861497
30.836463
30.060410
30.552745
31.437874
30.269623
##ZVALUE=260
0.815988
0.838637
1.216531
1.170635
1.246929
1.345873
1.686811
1.217723
1.427531
1.814961
2.155900
3.166795
9.676814
43.491721
105.752945
260.262489
432.229638
725.520849
977.119803
1015.943885
1015.943885
1015.943885
1015.943885
1011.810899
709.681511
478.608608
272.428989
166.685581
98.522902
89.874864
105.276704
130.877495
148.408413
156.579614
154.645443
135.133862
116.752982
86.865425
64.913630
41.385889
29.176474
17.834902
12.702942
11.355877
10.748506
11.050701
10.734797
10.628700
10.978580
10.456443
11.259913
11.373758
11.224747
11.217594
11.522770
11.132956
11.539459
10.957718
11.586547
11.748672
11.621714
12.370944
12.947917
13.811588
14.333725
14.508963
16.082525
16.899705
18.259883
20.103455
22.525787
23.746490
25.433898
28.093457
27.484894
28.742552
29.988885
28.187633
29.023886
28.881431
29.565692
28.081536
27.257800
28.303862
27.537942
27.508736
27.272701
27.494431
27.874708
29.066801
27.873516
28.437972
28.323531
27.172565
28.264523
28.533936
##ZVALUE=265
1.086593
1.131892
1.061559
1.171827
1.339912
1.226664
1.513958
1.384616
1.320839
1.507998
1.562834
1.727939
1.872778
2.508759
5.356669
30.307770
77.241659
203.141570
364.855528
691.586733
973.436832
1016.148925
1016.148925
1016.148925
1016.148925
1016.148925
943.484902
664.550662
376.025438
222.351551
131.034851
81.936717
88.098645
116.466880
138.073564
158.202648
161.188841
155.033469
142.749548
115.011930
91.245770
60.301423
42.767525
26.891828
19.655824
14.142990
12.146831
12.068748
11.489987
10.925531
11.375546
11.496544
11.668801
11.372566
11.448860
11.448860
11.710525
12.067556
11.712909
11.875629
11.960864
12.538433
12.821555
13.036728
12.748837
14.728904
14.634728
15.151501
16.969442
18.418431
19.411445
21.695495
23.850799
24.878979
26.011467
24.989843
26.866794
26.396513
25.166869
25.141835
26.157498
25.687814
26.249886
25.535822
25.858879
26.864409
25.154948
26.468635
25.596619
26.069880
26.172996
25.569797
26.373863
27.379990
25.905967
26.815534
##ZVALUE=270
0.763535
0.847578
1.020432
1.073480
0.908971
1.291633
1.167655
1.028776
1.117587
1.200438
1.182556
1.300573
1.499653
1.595616
1.849532
1.949668
2.519488
14.734864
44.193864
147.914886
298.272967
523.577929
928.235650
1015.943885
1015.943885
1015.943885
1015.943885
1015.943885
1015.943885
936.089754
643.580556
340.610743
188.825727
86.964965
70.431828
90.780854
111.488700
141.743422
155.212879
162.841678
160.385966
138.336420
118.964911
87.457895
64.769983
42.202473
31.076670
19.644499
15.471578
12.296438
12.399554
11.611581
11.558533
10.927916
11.623502
11.488795
10.928512
10.920763
11.354685
11.957884
11.715889
12.371540
12.412667
13.129711
13.117790
13.733506
14.676452
15.504956
16.079545
17.063618
19.725561
20.713806
22.235513
23.623705
23.510456
25.126934
24.203658
25.196671
23.597479
23.848414
23.803711
24.233460
23.087859
23.610592
22.973418
24.959445
23.815632
23.528934
24.386644
24.027824
25.003552
23.887753
24.580956
24.126768
24.250746
24.779439
##ZVALUE=275
0.723600
0.799894
0.816584
0.845790
0.892878
0.997782
0.899434
0.936985
0.971556
1.048446
1.173615
1.308918
1.249909
1.358986
1.537800
1.574755
1.539588
2.067685
2.388954
6.434917
26.543736
79.078674
239.655972
449.526906
842.670798
1015.943885
1015.943885
1015.943885
1015.943885
1015.943885
1015.943885
1015.943885
874.822736
464.746952
264.622569
112.806559
67.310929
66.158772
85.509419
116.903782
135.934949
156.498551
161.731839
154.715776
139.108896
111.845732
89.504719
63.665509
46.559572
29.206872
19.824505
14.138818
12.890697
11.728406
11.524558
11.611581
11.102557
11.687875
11.263490
11.587739
12.122989
12.404919
12.637973
13.502836
13.178587
13.936758
14.255643
15.200973
15.432835
16.891956
18.085837
19.513965
20.495653
22.078753
23.923516
23.835897
23.508668
24.269819
24.001598
22.505522
23.199916
23.558736
22.473931
22.069812
22.462606
22.700429
22.246838
23.574829
23.078918
22.874475
23.512840
23.473501
22.529960
22.924542
23.034811
23.686886
##ZVALUE=280
0.703931
0.640750
0.815988
0.833869
0.847578
0.973940
0.777841
0.802875
0.775456
1.017451
1.081824
1.078844
0.963807
1.140833
1.314878
1.236796
1.621842
1.578927
1.823902
1.664758
1.873970
2.881885
17.903447
62.322617
199.636817
367.099643
692.662001
988.829732
1015.943885
1015.943885
1015.943885
1015.943885
1015.943885
1015.943885
1015.943885
687.343478
423.720479
184.851885
90.540648
53.944588
61.385632
87.366700
109.441876
137.365460
151.810646
156.898499
153.211951
134.194493
115.133524
86.122751
64.351559
41.276813
29.849410
19.577742
14.574528
11.706948
11.869669
11.592507
11.662841
12.078881
11.795759
12.739897
12.581944
13.129711
14.073849
13.894439
14.095902
15.154481
15.854836
17.345548
18.171668
19.378662
20.183921
21.768808
22.272468
22.418499
22.877455
22.627711
22.857785
22.432804
22.654533
22.501945
22.334456
21.632910
22.285581
21.964908
21.677613
21.792650
22.768974
22.598505
22.249818
22.534728
22.056699
22.679567
22.584796
22.306442
##ZVALUE=285
0.753999
0.460744
0.720620
0.758767
0.871420
0.693798
0.864863
0.920892
0.711679
0.826716
0.959635
0.867844
1.069903
0.942945
1.012683
1.155734
1.090765
1.486540
1.650453
1.368523
1.626611
2.100468
2.333522
2.615452
8.832812
32.323003
116.236806
242.253542
532.137752
844.603777
1015.943885
1015.943885
1015.943885
1015.943885
1015.943885
1015.943885
1015.943885
905.648470
565.299988
261.877775
126.939416
50.402880
41.115880
57.423711
77.953935
109.095573
127.520561
146.815777
152.386427
146.595836
135.275722
111.378431
88.441968
62.948465
45.604706
28.264523
20.700693
14.748573
12.859702
12.426972
12.425780
12.704730
12.802482
13.070703
13.427734
14.713407
15.160441
15.474558
16.439557
16.833544
17.882586
19.679666
20.399690
21.481514
21.522641
23.163557
22.785664
21.337867
21.898746
21.786690
22.241473
22.949576
21.725893
21.482706
22.038817
21.706820
22.110939
22.176504
21.765828
22.157431
21.739602
21.288991
21.494627
22.061467
21.355748
21.303892
##ZVALUE=290
0.537634
0.572801
0.701547
0.745654
0.599623
0.830889
0.785589
0.596642
0.715852
0.801682
0.925660
0.865459
1.022816
1.033545
1.065731
0.988841
1.214743
1.205802
1.207590
1.203418
1.329780
1.409650
1.519918
1.912713
2.089739
2.274513
3.770590
13.714433
69.854856
161.811709
388.572812
675.571561
1001.901031
1015.944481
1015.944481
1015.944481
1015.944481
1015.944481
1015.944481
1015.944481
807.417631
397.330523
196.756721
67.771673
35.046935
38.314462
52.341819
76.215863
96.543431
122.182965
138.123631
146.952868
145.165920
129.559636
109.575987
82.741976
63.612461
41.921735
30.182600
19.933581
15.731454
13.433695
12.512803
12.930632
12.875795
14.083982
14.513731
15.013814
16.163588
17.002821
18.206835
18.799901
19.876957
20.981431
20.699501
21.231771
21.534562
20.826459
21.542907
20.962954
21.577477
21.697879
21.212697
21.729469
21.894574
21.725893
21.466613
21.180511
20.958781
21.224618
21.603703
21.193624
20.684600
20.953417
21.116734
21.024942
##ZVALUE=295
0.630617
0.581741
0.658631
0.775456
0.674725
0.814795
0.595450
0.812411
0.676513
0.771880
0.734925
0.823736
0.926852
1.118779
0.953674
1.040697
0.973940
1.034737
1.073480
1.361966
1.230836
1.237988
1.421571
1.474619
1.559854
1.940727
2.379417
2.493858
2.817512
6.198883
23.650527
107.768774
255.030394
606.346726
964.373946
1015.943885
1015.943885
1015.943885
1015.943885
1015.943885
1015.943885
1015.943885
1002.202630
552.867651
293.706656
97.136497
42.623878
26.959777
31.447411
50.659776
68.922639
95.236897
113.057494
132.906437
139.560699
137.342811
126.963854
104.236603
85.966587
59.721470
45.097470
28.966665
22.214651
17.054677
14.751554
14.454722
14.508963
15.682578
15.600920
17.021894
18.386841
18.284917
19.991994
21.251440
21.013618
21.471977
21.744967
21.687746
21.500587
21.642447
20.991564
20.863414
21.075606
21.931529
21.451712
21.152496
21.677613
21.432638
21.654963
21.791458
21.419525
21.019578
21.167994
20.864606
21.402836
20.689964
##ZVALUE=300
0.685453
0.588894
0.607967
0.626445
0.649691
0.628829
0.631809
0.451803
0.665784
0.679493
0.632405
0.714660
0.856519
0.781417
0.964999
0.838637
0.874996
0.955462
1.006722
0.945926
1.187921
1.177788
1.318455
1.466870
1.414418
1.616478
1.568794
1.536608
2.133846
2.481937
2.761483
3.000498
14.056563
56.180954
196.868777
390.300751
806.844831
1015.943885
1015.943885
1015.943885
1015.943885
1015.943885
1015.943885
1015.943885
1015.943885
829.343796
402.629972
199.213624
63.816905
28.746724
21.984577
29.218793
45.339465
61.117411
86.041689
104.595423
125.388503
132.895708
130.126476
123.718977
102.928877
84.695816
61.361790
46.983957
31.290650
24.675727
18.999577
16.761422
16.143918
16.709566
18.362999
18.913746
19.658804
20.107627
20.350814
21.424890
21.673441
21.280646
22.099614
21.839738
21.592975
21.833777
21.300912
21.995902
21.408796
22.422671
21.687746
21.758676
22.465587
21.871924
21.590590
21.032691
20.994544
20.913482
21.009445
20.681620
##ZVALUE=305
0.500679
0.549555
0.690818
0.642538
0.434518
0.866652
0.696778
0.706911
0.663996
0.655651
0.646710
0.669956
0.586510
0.667572
0.835657
0.830889
0.903606
0.845790
0.907779
0.909567
0.884533
1.272559
1.127720
1.360774
1.380444
1.326799
1.430511
1.532435
1.856685
1.771450
1.991987
2.153516
2.610683
3.107786
8.563995
35.490990
148.077607
321.862698
700.969696
1015.943885
1015.943885
1015.943885
1015.943885
1015.943885
1015.943885
1015.943885
1015.943885
1004.038453
548.976660
299.421549
109.689832
44.870973
18.626451
19.890666
29.516816
40.837526
63.787699
81.301928
103.578568
118.378997
126.259923
126.493573
114.898682
102.753639
80.358982
62.610507
44.197440
33.651590
23.971796
20.466447
18.761754
18.986464
19.645691
19.617677
20.625591
20.742416
20.875931
22.215843
21.406412
21.377802
21.108985
21.474957
21.925569
23.110509
22.320747
21.942854
22.706985
22.196770
21.902919
22.215843
21.815896
21.514893
21.182895
21.345615
21.166801
21.123886
##ZVALUE=310
0.502467
0.617504
0.652671
0.579953
0.655651
0.540614
0.617504
0.471473
0.622869
0.600815
0.643730
0.659823
0.640750
0.884533
0.774860
0.760555
0.797510
0.925660
0.858903
0.694990
1.050830
0.951886
1.046658
1.044869
1.122952
1.201630
1.362562
1.369715
1.465678
1.486540
1.690984
1.831651
1.827478
2.179742
2.377629
2.731681
3.547668
18.182993
66.791773
229.160786
447.801948
920.388699
1015.943885
1015.943885
1015.943885
1015.943885
1015.943885
1015.943885
1015.943885
1015.943885
872.672796
416.698456
212.519765
70.212483
27.136803
15.602708
18.305779
26.691556
37.066936
55.556893
72.953701
94.915628
108.182430
119.701624
121.363997
113.862753
100.940466
80.316663
64.577460
47.285557
36.718845
27.686954
24.879575
21.998882
21.029711
21.036863
21.364689
21.779537
21.333694
21.654963
21.881461
22.273660
22.118688
22.613406
22.924542
23.140907
22.981763
22.881627
23.043752
22.683740
22.553802
22.264719
22.265911
21.820664
21.999478
21.344423
##ZVALUE=315
0.496507
0.518560
0.617504
0.383854
0.641942
0.626445
0.649691
0.622869
0.640750
0.505447
0.677705
0.464916
0.760555
0.847578
0.530481
0.571609
0.672936
0.888705
0.937581
0.792742
0.741482
0.878572
1.056790
0.948906
0.989437
1.048446
1.094937
1.186728
1.253486
1.402497
1.341701
1.631975
1.501441
1.749992
1.808405
2.206564
2.414584
2.724528
3.374815
8.510947
34.321547
150.146484
334.536433
748.157501
1015.946865
1015.946865
1015.946865
1015.946865
1015.946865
1015.946865
1015.946865
1015.946865
1015.946865
618.077517
322.816968
110.190511
41.932464
16.015768
14.781952
18.001795
24.071932
38.006902
51.142573
71.162581
87.280869
107.221603
115.176439
116.897821
111.610889
94.835758
80.778599
63.790679
50.272942
36.213994
29.646754
24.637580
22.807717
21.912456
21.594763
21.624565
21.806955
22.565722
22.707582
22.560954
23.298860
23.209453
23.075938
23.272634
23.119450
23.323894
23.187995
22.646785
22.337437
22.899508
22.207499
21.410584
##ZVALUE=320
0.452995
0.547767
0.585914
0.656843
0.512600
0.603795
0.632405
0.484586
0.737906
0.565648
0.691414
0.608563
0.617504
0.785589
0.642538
0.709891
0.717640
0.695586
0.724792
0.561476
0.762939
0.513792
0.888705
0.894666
0.954866
1.091957
1.080632
1.011491
1.274943
1.215935
1.334548
1.256466
1.398921
1.501441
1.593828
1.677871
1.961589
2.196431
2.564788
2.556443
3.050566
3.811717
19.292831
69.480538
247.447491
501.315594
978.842974
1015.939713
1015.939713
1015.939713
1015.939713
1015.939713
1015.939713
1015.939713
1015.939713
933.090448
420.736670
212.968588
72.884560
27.670860
14.164448
14.021993
17.550588
23.248792
34.794807
47.114491
66.483617
82.384944
101.991892
110.480785
113.380551
107.440948
95.104575
81.981421
62.873960
50.419569
38.008690
30.717850
25.603771
23.482442
23.442507
22.994876
22.894740
22.931695
23.260713
22.799969
23.029447
23.368001
23.157001
23.299456
23.005605
22.730827
22.944808
22.533536
22.904873
22.119880
##ZVALUE=325
0.500679
0.618696
0.397563
0.521541
0.486970
0.469685
0.400543
0.417829
0.414848
0.532866
0.540614
0.651479
0.491738
0.498891
0.552535
0.484586
0.567436
0.603795
0.731945
0.738502
0.652671
0.601411
0.831485
0.739694
0.760555
0.766516
0.872612
0.999570
0.947714
0.925660
0.989437
1.051426
1.024604
1.340508
1.374483
1.510978
1.637936
1.722574
1.762509
2.079606
2.241731
2.421737
2.925992
3.382564
7.764697
55.478811
148.489475
398.478508
723.588467
1015.951633
1015.951633
1015.951633
1015.951633
1015.951633
1015.951633
1015.951633
1015.951633
1002.292037
645.791888
270.774961
122.939944
34.677982
16.196966
13.600588
14.169812
17.742515
23.360848
34.730434
47.233701
67.176819
82.458854
98.315477
106.298923
107.283592
103.243589
88.581443
74.524879
59.718490
47.367811
35.571456
29.778481
24.918914
23.604631
23.272634
22.891760
23.840666
23.054481
22.920966
23.516417
22.941828
23.399591
22.825599
22.645593
22.680759
22.740960
22.167563
##ZVALUE=330
0.641942
0.482798
0.516772
0.553727
0.718832
0.499487
0.617504
0.574589
0.735521
0.590682
0.473857
0.665784
0.746846
0.696778
0.639558
0.699759
0.754595
0.623465
0.735521
0.778437
0.816584
0.783801
0.820756
0.850558
0.940561
0.912547
0.891685
1.013875
0.868440
1.033545
0.825524
1.100898
1.182556
1.227856
1.196861
1.242757
1.352429
1.565814
1.813769
1.985431
2.057552
2.099872
2.154708
2.711415
2.870560
3.445745
4.633665
25.515556
84.939599
282.556415
539.581776
1002.875566
1016.072631
1016.072631
1016.072631
1016.072631
1016.072631
1016.072631
1016.072631
1016.072631
930.454731
425.453782
206.307769
64.489841
24.203658
13.987422
13.855696
14.958978
18.271804
25.924444
34.484863
48.552752
62.870979
81.275702
93.549490
102.226734
103.541613
97.422600
86.591840
70.690513
58.086514
44.332743
37.088990
29.906631
27.025938
24.853945
23.476481
23.305416
23.188591
22.860765
22.789836
22.677779
22.119880
22.094846
22.026896
21.998882
##ZVALUE=335
0.378489
0.364780
0.361800
0.407696
0.471473
0.460744
0.524521
0.432730
0.425577
0.596642
0.624657
0.735521
0.584722
0.457764
0.507832
0.538826
0.410676
0.441670
0.594854
0.450611
0.576973
0.513792
0.611544
0.826716
0.695586
0.796914
0.776649
0.857711
0.695586
0.848770
0.934601
0.842810
1.017451
1.182556
1.059771
1.147985
1.191497
1.267791
1.327991
1.339912
1.368523
1.609921
1.802444
2.053976
2.035499
2.546906
2.645850
3.108978
3.614426
11.465549
48.858523
197.772384
408.775806
874.277949
1015.950441
1015.950441
1015.950441
1015.950441
1015.950441
1015.950441
1015.950441
1015.951037
1015.950441
595.260859
303.495526
95.478892
35.874844
15.250444
13.864636
15.052557
16.023517
19.676685
24.616718
34.861565
46.009421
63.028932
75.857639
88.581443
95.734000
96.203685
91.744661
80.353618
69.795847
56.580901
47.151446
36.940575
30.080676
26.303530
23.896694
23.072958
22.050738
22.167563
21.898746
21.385550
21.553636
21.226406
##ZVALUE=340
0.435710
0.496507
0.484586
0.480413
0.361800
0.371933
0.515580
0.386834
0.481606
0.362992
0.407696
0.467896
0.501871
0.604987
0.418425
0.516772
0.618696
0.550747
0.593662
0.648499
0.666976
0.689626
0.702739
0.736713
0.753999
0.702739
0.686646
0.743866
0.688434
0.877976
0.954866
0.839829
0.892878
1.028776
0.986457
1.045465
1.052618
1.018643
1.251698
1.261830
1.277924
1.505613
1.530647
1.778603
1.713634
2.172589
2.347827
2.417564
2.683997
3.075600
3.452897
5.662441
20.568967
108.146667
270.498991
684.127808
1015.943885
1015.943885
1015.943885
1015.943885
1015.943885
1015.943885
1015.943885
1015.943885
1015.943885
764.859915
412.057638
160.861611
59.917569
18.256903
14.738441
15.353560
15.943646
17.163754
19.500852
26.142597
33.093691
45.470595
57.558417
73.558688
84.619522
91.732740
92.487931
87.481737
80.001950
66.812634
56.282878
43.668747
37.142634
29.318929
25.308728
22.766590
21.551847
21.217465
20.521879
20.627975
##ZVALUE=345
0.431538
0.567436
0.448823
0.511408
0.354648
0.446439
0.369549
0.455976
0.465512
0.395775
0.464916
0.609756
0.488758
0.456572
0.355840
0.516772
0.698566
0.578761
0.635982
0.579953
0.531673
0.557899
0.688434
0.720620
0.611544
0.643730
0.728965
0.767708
0.766516
0.734925
0.788569
0.622869
0.813603
0.750422
0.901818
1.052618
0.919700
0.958443
1.092553
1.111627
1.047850
1.172423
1.270771
1.292825
1.460910
1.524687
1.579523
1.665950
1.883507
2.088547
2.300739
2.727509
3.184676
3.764629
8.727908
60.968399
172.800422
462.073684
824.737549
1015.946865
1015.946865
1015.946865
1015.946865
1015.946865
1015.946865
1015.946865
1015.946865
957.377553
558.288693
220.915675
91.002584
26.809573
16.261935
15.002489
14.619827
15.287995
16.215444
18.867850
22.551417
31.471848
40.824413
54.949522
65.715909
77.507496
82.601905
85.731745
82.239509
74.872971
66.675544
54.552555
44.703484
33.892989
28.569698
24.222732
21.700859
20.387769
##ZVALUE=350
0.340939
0.354648
0.447631
0.520945
0.613928
0.471473
0.448823
0.365973
0.413656
0.366569
0.534654
0.423789
0.458956
0.412464
0.544786
0.719428
0.549555
0.569820
0.422597
0.368953
0.438690
0.551939
0.621676
0.652671
0.687838
0.627637
0.456572
0.564456
0.594854
0.733733
0.758767
0.584722
0.761747
0.851750
0.700951
0.855923
0.781417
0.904799
0.946522
0.870824
1.038909
1.046658
1.122952
1.163483
1.185536
1.392961
1.292825
1.517534
1.592636
1.776814
1.673698
2.083778
2.274513
2.463460
2.649426
3.391504
4.799962
27.183890
93.101859
301.650763
581.061840
1015.943885
1015.943885
1015.943885
1015.943885
1015.943885
1015.943885
1015.943885
1015.943885
1015.943885
730.338693
329.832435
147.992969
38.105845
17.439723
14.025569
14.056563
13.672709
14.040470
15.538931
17.393827
22.598505
28.580427
37.853718
46.593547
59.352517
68.126917
75.998902
78.356862
75.956583
70.543885
59.903860
51.290989
40.070415
33.232570
27.120709
##ZVALUE=355
0.427961
0.400543
0.547767
0.553727
0.385642
0.491738
0.448823
0.586510
0.469685
0.643730
0.711679
0.541806
0.435710
0.640750
0.655651
0.721812
0.536442
0.509620
0.613928
0.594854
0.701547
0.625849
0.657439
0.720620
0.771880
0.766516
0.761747
0.774860
0.665784
0.679493
0.925660
0.796914
0.789762
0.912547
0.717640
0.784993
0.863671
0.704527
0.845790
1.029968
1.065731
1.180768
1.256466
1.180768
1.309514
1.266599
1.333952
1.476407
1.492500
1.739860
1.762509
1.848936
2.079606
2.156496
2.339482
2.693534
2.885461
3.252625
4.029870
9.720922
61.753988
174.382925
485.792756
876.827836
1015.971899
1015.971899
1015.971899
1015.971899
1015.971899
1015.971899
1015.971899
1015.971899
863.832831
478.437543
178.209543
71.664453
20.090938
14.061928
13.550520
13.595819
13.426542
13.985634
14.770627
16.884804
20.677447
24.941564
33.917427
41.565895
53.803921
61.378479
67.973733
71.166754
69.555640
64.945817
56.679845
49.072504
##ZVALUE=360
0.437498
0.409484
0.432730
0.463724
0.284910
0.447631
0.550747
0.585914
0.626445
0.477433
0.690818
0.534654
0.483990
0.449419
0.548959
0.475645
0.491738
0.692606
0.430942
0.771880
0.663996
0.701547
0.664592
0.742674
0.669956
0.689626
0.689626
0.681877
0.783801
0.767708
0.711679
0.849962
0.864863
0.951886
0.849962
1.003742
1.032948
1.102686
1.096725
0.789762
0.959635
1.162887
1.169443
1.268983
1.302958
1.263618
1.273751
1.424551
1.289845
1.636744
1.457930
1.646876
1.750588
2.089739
2.042651
2.195835
2.357960
2.668500
2.956986
3.505945
4.041791
6.530881
23.894906
111.896992
273.420811
688.372850
1015.943885
1015.943885
1015.943885
1015.943885
1015.943885
1015.943885
1015.943885
1015.943885
1015.943885
586.339831
302.346945
104.908943
38.301945
14.346838
13.174415
12.871623
12.686849
12.765527
12.938976
13.879538
14.545918
17.561913
21.063685
28.535724
35.658479
45.774579
53.000450
60.465932
63.860416
64.357519
##ZVALUE=365
0.500679
0.540614
0.483990
0.499487
0.491738
0.386834
0.524521
0.439882
0.557899
0.446439
0.440478
0.603795
0.506639
0.517964
0.564456
0.732541
0.712872
0.616908
0.494719
0.536442
0.595450
0.621676
0.580549
0.561476
0.581741
0.729561
0.685453
0.639558
0.683665
0.730753
0.695586
0.907779
0.743866
0.806451
0.833869
1.002550
1.031756
0.918508
0.835657
0.906587
0.909567
1.057982
1.106858
1.160502
1.070499
0.883937
1.192689
1.176000
1.515746
1.196861
1.348853
1.434684
1.524687
1.580715
1.711845
1.684427
1.842976
2.017617
2.257824
2.687573
2.742410
3.504753
3.747940
4.574656
10.088682
65.969825
182.666779
484.609604
889.305472
1015.934944
1015.934944
1015.934944
1015.934944
1015.934944
1015.934944
1015.934944
1015.934944
814.057589
432.750583
144.636631
53.193569
15.519857
12.256503
11.374950
11.460781
11.184812
11.611581
11.467934
11.703968
13.072491
14.817715
18.987656
23.014545
30.454993
37.578940
46.431422
##ZVALUE=370
0.399947
0.499487
0.494719
0.530481
0.489950
0.535846
0.473857
0.527501
0.428557
0.389814
0.549555
0.597835
0.394583
0.536442
0.544786
0.385642
0.400543
0.449419
0.549555
0.574589
0.591874
0.594854
0.542998
0.471473
0.456572
0.652671
0.551939
0.632405
0.741482
0.611544
0.709891
0.557899
0.740886
0.673532
0.666976
0.712872
0.694990
0.691414
0.884533
0.804663
0.941753
0.831485
0.904799
0.789762
0.967979
1.130700
1.085997
0.976920
1.090765
1.108646
1.112819
1.279712
1.211762
1.216531
1.435876
1.512766
1.562834
1.656413
1.882911
2.051592
2.221465
2.530813
2.747774
2.860427
3.373623
3.894567
5.317926
32.545924
113.594532
357.340574
682.862997
1015.943885
1015.943885
1015.943885
1015.943885
1015.943885
1015.943885
1015.943885
1015.943885
930.642486
518.942475
198.080540
83.476901
22.539496
12.170672
10.575652
10.192990
10.206699
10.144711
10.151863
10.198951
10.715723
11.348724
12.927651
15.902519
20.562410
##ZVALUE=375
0.340939
0.405908
0.383854
0.456572
0.342727
0.306964
0.390410
0.537634
0.591874
0.345707
0.322461
0.632405
0.485778
0.502467
0.445843
0.413656
0.348687
0.317693
0.430942
0.611544
0.417829
0.671744
0.455976
0.596642
0.367761
0.412464
0.566840
0.527501
0.565648
0.532866
0.506639
0.724792
0.651479
0.654459
0.502467
0.649691
0.721812
0.601411
0.698566
0.779629
0.755787
0.870824
0.844598
0.854731
0.780821
0.684857
0.899434
0.943542
0.933409
0.940561
1.020432
0.987649
1.028776
1.228452
1.286864
1.427531
1.303554
1.345873
1.525879
1.556873
1.852512
1.885891
1.739860
2.150536
2.216697
2.566576
2.889633
3.391504
4.131794
15.106797
59.271455
224.823952
481.685996
1002.347469
1015.944481
1015.944481
1015.944481
1015.944481
1015.944481
1015.944481
1015.944481
1015.945077
766.827464
370.087624
178.207755
50.550699
18.231869
10.323524
10.027885
9.273887
9.297729
9.392500
9.490848
9.623766
9.608865
10.487437
##ZVALUE=380
0.349879
0.356436
0.377893
0.413656
0.442863
0.369549
0.434518
0.424981
0.313520
0.380874
0.315905
0.476837
0.415444
0.291467
0.326633
0.494719
0.346899
0.461936
0.523925
0.583529
0.561476
0.477433
0.559688
0.339746
0.406504
0.612736
0.446439
0.459552
0.443459
0.529885
0.623465
0.570416
0.593662
0.638962
0.611544
0.536442
0.718832
0.743866
0.630617
0.716448
0.644922
0.756979
0.568628
0.835657
0.812411
0.835657
0.844598
0.778437
0.866652
0.901818
0.914931
0.757575
0.814795
1.092553
0.955462
0.938773
1.159906
0.991821
1.341701
1.321435
1.265407
1.418591
1.515746
1.609921
2.007484
1.976490
2.131462
2.674460
3.067851
3.607869
4.302859
7.628798
30.086637
154.837966
364.702940
850.448608
1015.968919
1015.968919
1015.968919
1015.968919
1015.968919
1015.968919
1015.968919
1015.968919
995.483994
505.657792
247.812867
78.479648
28.610826
10.873675
9.129643
8.627772
8.643866
8.677840
8.683801
8.564591
##ZVALUE=385
0.216961
0.244975
0.312924
0.302792
0.481606
0.263453
0.242591
0.303984
0.293851
0.387430
0.311732
0.182986
0.306964
0.308752
0.275970
0.302792
0.267625
0.327826
0.346899
0.411868
0.310540
0.406504
0.291467
0.462532
0.459552
0.381470
0.521541
0.470877
0.407696
0.528693
0.570416
0.378489
0.394583
0.170469
0.587702
0.484586
0.484586
0.612736
0.368953
0.587702
0.375509
0.595450
0.650883
0.487566
0.797510
0.624657
0.586510
0.765920
0.730753
0.620484
0.597835
0.862479
0.835657
0.888705
0.719428
0.962615
1.047850
1.086593
1.008511
1.005530
1.136661
1.264811
1.237988
1.310706
1.437664
1.568794
1.793504
1.961589
2.258420
2.605915
3.205538
3.405809
3.824830
4.483461
13.261437
86.661577
230.539441
590.643883
986.014009
1015.943885
1015.943885
1015.943885
1015.943885
1015.943885
1015.943885
1015.943885
1015.943885
753.511786
413.295627
160.171986
59.332848
14.099479
8.956790
8.202791
8.032918
8.026958
##ZVALUE=390
0.337958
0.197887
0.180602
0.281930
0.188947
0.399947
0.320673
0.368953
0.295639
0.289679
0.222921
0.307560
0.289679
0.359416
0.364780
0.359416
0.292659
0.307560
0.267625
0.272989
0.227690
0.418425
0.445843
0.424981
0.389814
0.316501
0.286698
0.438690
0.449419
0.305772
0.373721
0.416636
0.316501
0.484586
0.428557
0.557899
0.565648
0.506639
0.527501
0.546575
0.396967
0.453591
0.449419
0.546575
0.438690
0.514984
0.504851
0.637770
0.554919
0.660419
0.827909
0.761747
0.737906
0.836849
0.952482
0.906587
1.066923
0.912547
0.960827
1.019835
0.970960
1.050830
1.157522
1.247525
1.443624
1.468658
1.709461
1.898408
2.293587
2.560616
2.743602
2.869964
2.957582
2.886653
3.568530
3.700852
7.441640
34.250617
169.020891
398.204923
924.353600
1015.943885
1015.943885
1015.943885
1015.943885
1015.943885
1015.943885
1015.943885
1015.943885
1015.943885
591.656566
302.407742
98.427534
32.343864
9.322762
8.068681
##ZVALUE=395
0.318885
0.373721
0.260472
0.373721
0.438690
0.127554
0.246763
0.333786
0.097752
0.237823
0.262856
0.362992
0.289679
0.312924
0.246763
0.340939
0.334978
0.442863
0.292659
0.120997
0.525713
0.292659
0.534654
0.466704
0.453591
0.494719
0.399947
0.400543
0.453591
0.423789
0.446439
0.442863
0.506639
0.436902
0.541806
0.523925
0.454783
0.301600
0.593662
0.514984
0.460744
0.427961
0.507832
0.650883
0.750422
0.708699
0.681877
0.791550
0.485778
0.582933
0.708699
0.594854
0.746846
0.729561
0.708699
0.977516
0.775456
0.823736
0.898838
0.861883
0.864863
0.925660
1.026988
1.099706
1.255870
1.421571
1.642704
1.720786
1.958609
2.231598
2.264977
2.443790
2.704859
2.504587
2.582669
2.607703
2.873540
3.177524
4.336834
23.035407
92.348456
338.842869
648.784637
1015.943885
1015.943885
1015.943885
1015.943885
1015.943885
1015.943885
1015.943885
1015.943885
1015.943885
769.455433
321.695805
145.329833
41.894913
##ZVALUE=400
0.346899
0.242591
0.290871
0.438690
0.231862
0.348687
0.212789
0.292659
0.303984
0.312924
0.444651
0.337958
0.371933
0.246763
0.353456
0.175834
0.242591
0.334978
0.323653
0.383854
0.320673
0.130534
0.322461
0.391603
0.376701
0.319481
0.444651
0.409484
0.443459
0.533462
0.388622
0.403523
0.364780
0.293851
0.440478
0.428557
0.303984
0.313520
0.454783
0.518560
0.598431
0.548959
0.420809
0.502467
0.448823
0.556707
0.514984
0.625849
0.666976
0.667572
0.589490
0.639558
0.678897
0.718832
0.740886
0.643730
0.712872
0.813603
0.828505
0.933409
0.878572
1.036525
0.891685
1.134872
1.073480
1.290441
1.564622
1.632571
1.799464
2.016425
2.181530
2.207756
2.360940
2.374649
2.359748
2.390742
2.525449
2.440810
2.843738
3.193617
3.623962
12.081861
47.327876
184.962749
408.501625
930.728912
1015.943885
1015.943885
1015.943885
1015.943885
1015.943885
1015.943885
1015.943885
1015.943885
950.523615
472.275615
##END
