##TITLE=QP00301
##FORMAT=SPECTACLE-ASCII V-1.2
##DATA TYPE=ULTRAVIOLET SPECTRUM
##SECOND TYPE=ULTRAVIOLET SPECTRUM
##DATE=01/21/18
##TIME=15:15:02
##SPECTROMETER/DATA SYSTEM=SPECTACLE
##XUNITS=NM EM
##YUNITS=ENERGY
##YFACTOR=1
##FIRSTX=220
##LASTX=410
##NPOINTS=96
##3DDATA=Equidistant
##ZUNITS=NM EX
##FIRSTZ=210
##LASTZ=400
##ZPOINTS=39
##XYDATA=(Y..Y)
##ZVALUE=210
1.750588
1.866817
2.141595
2.220869
2.513528
2.450943
2.532601
2.253652
2.571940
2.454519
2.429485
2.736449
2.254844
2.543926
2.609491
3.403425
3.142953
2.793670
2.745986
2.741814
3.017783
3.609657
3.198981
3.285408
3.539920
3.958941
3.703833
3.441572
3.965497
3.933907
3.815889
4.683733
4.051924
3.828406
4.481673
4.916787
4.215837
4.321933
4.629493
4.271865
4.390478
4.704595
4.016757
4.220605
4.179478
4.292727
3.840923
4.274845
4.792809
4.383922
4.104972
4.908442
4.680753
4.785657
4.733801
4.498959
4.514456
5.056858
4.414916
4.237890
4.897714
5.300641
5.093813
4.812479
5.715489
4.911423
5.191565
5.756617
6.640553
6.751418
7.371902
8.763671
9.506941
9.999871
11.373758
12.250543
10.948777
11.266470
10.981560
10.124445
10.500550
8.769631
8.064508
7.460713
6.530881
5.769730
5.683899
4.565716
4.671812
4.827976
5.431771
5.130768
4.401803
4.543662
4.497766
4.932880
##ZVALUE=215
3.133416
3.847480
3.737807
3.471971
3.071427
2.255440
2.613664
3.325939
3.655553
3.606677
3.721714
2.911687
3.050566
2.595782
2.557635
2.390742
1.666546
1.826882
2.403855
2.438426
2.374649
2.349615
2.618432
2.503991
2.444983
2.796650
2.311468
2.566576
2.693534
3.143549
3.332496
2.353787
3.089905
3.493428
3.775954
3.134608
3.237724
3.516674
3.386736
3.140569
3.087521
3.596544
3.431439
3.545880
3.467798
3.665686
4.185438
3.803968
4.455447
3.936887
3.300905
3.760457
3.746748
3.782511
4.121661
3.876686
3.352761
3.766418
3.792644
4.667640
3.574491
3.498793
3.991723
4.356503
3.964901
3.632903
4.791617
4.840493
5.388856
5.668998
6.498694
7.955432
8.296967
9.566545
9.444952
10.047555
9.793639
8.945465
9.490848
8.107424
8.066893
6.717443
6.513596
6.539822
5.344748
6.100535
4.619956
4.569888
3.882647
4.277825
4.378557
4.196763
4.385710
4.270673
3.487468
4.083514
##ZVALUE=220
13.032556
13.603568
14.613867
15.511513
16.266704
13.400912
11.480451
10.268688
9.372830
8.823872
8.696914
10.271668
9.646416
9.902716
9.632707
5.802512
5.203485
3.850460
3.184676
2.752542
3.060699
3.880858
3.195405
3.749728
3.424883
3.146529
4.049540
3.865957
3.674626
3.956556
3.999472
3.997684
4.242659
4.884601
4.029870
4.336834
3.989935
4.252791
4.387498
4.729629
5.217791
4.663467
4.233718
4.551411
4.987717
5.071759
4.351735
4.838705
4.779696
4.917979
4.487634
5.011559
4.151464
5.131960
4.540682
5.177855
5.002618
5.660653
5.086660
4.918575
4.632473
5.554557
5.321503
4.754663
6.115437
5.868673
5.843639
5.530715
6.427765
7.129908
7.905960
9.011626
10.231733
10.451674
11.397600
12.019873
11.969805
11.447668
11.876822
10.051727
10.143518
10.001659
8.556843
8.684993
8.628964
7.627606
6.916523
6.514788
6.513596
6.179810
5.828738
5.745888
5.507469
6.039739
6.358624
6.146431
##ZVALUE=225
22.540689
25.879741
33.822656
44.777989
50.918460
52.443743
48.043728
42.941570
34.843683
27.547479
23.434758
22.502542
23.110509
24.972558
24.607778
24.130940
20.698905
16.234517
12.854934
9.512901
6.793737
4.706979
4.620552
3.766418
4.594922
3.908873
3.639460
3.495812
3.990531
4.415512
4.325509
4.133582
4.453659
3.893971
5.048513
5.161762
5.073547
4.853606
5.126595
5.583763
5.223751
5.844831
4.566908
4.992485
4.900694
4.800558
4.703999
4.677773
4.806519
5.495548
5.169511
5.481839
5.337000
5.626678
6.163716
5.114675
6.250739
5.802512
5.674958
5.628467
6.026626
7.215738
5.677938
6.753802
6.604791
7.115602
6.344914
7.827878
8.674860
9.325743
9.050965
9.921789
11.983514
12.788773
11.934638
12.413859
12.148619
14.264584
12.233853
12.876987
11.762977
10.904670
10.607839
10.299683
9.548664
9.144545
10.013580
10.003448
8.938909
9.066463
8.511543
9.740591
9.845495
8.342862
8.994937
8.499622
##ZVALUE=230
22.449493
23.137927
38.718581
68.301558
90.640783
121.615529
134.593844
138.652921
129.800439
113.638639
79.449415
62.155724
45.926571
41.038990
44.274926
46.696663
46.841502
50.584674
41.293502
35.465956
27.390718
17.253757
11.742711
6.890893
5.956888
5.063415
5.319715
4.374981
4.906654
4.963875
4.824996
5.054474
4.507899
5.702972
5.772710
5.096793
5.537868
5.893707
6.047487
6.217957
6.249547
5.175471
5.723834
5.253553
6.545782
5.199909
5.754828
5.866885
6.259680
6.590486
6.128550
6.621480
6.009936
5.546808
6.797910
5.484819
6.732941
7.848740
6.892681
8.059740
7.018447
8.924603
8.351803
8.949637
9.509921
9.664893
9.009838
10.605454
11.569858
12.048483
14.985800
15.040636
16.736984
17.488599
18.064976
17.934442
17.695427
16.301870
16.692877
17.722845
16.390681
16.053915
16.313791
15.247464
14.577508
14.806986
13.448000
15.495420
15.575886
14.804602
14.369488
14.615655
14.245510
15.377998
15.117526
14.403462
##ZVALUE=235
7.544756
9.179711
23.378730
48.308969
91.077685
133.914948
203.041434
253.860950
298.141837
296.047926
264.538527
214.394927
174.359679
112.752914
86.155534
69.399476
66.185594
78.437924
82.434416
84.279776
77.877641
67.551732
51.889420
37.576556
21.793842
16.645789
10.413527
7.199645
5.832911
5.917549
5.517602
6.689429
5.677938
5.961657
6.478429
6.352663
6.519556
6.374717
5.773902
7.210970
6.299615
6.236434
5.910993
5.452633
5.629659
6.762743
6.132722
5.737543
6.768703
7.064939
6.295443
6.332994
5.897880
7.795691
7.538795
7.838607
7.952452
7.938743
8.739829
8.384585
10.301471
10.418892
9.846687
10.088682
11.238456
11.460781
12.113452
13.134480
14.430881
16.875863
17.695427
21.247864
20.437837
19.825697
22.514462
23.151636
23.129582
23.862720
23.971796
23.429990
23.105741
22.283792
23.008585
22.504926
20.569563
22.393465
21.788478
22.380948
22.131801
21.058917
22.525787
21.449924
21.541715
21.877885
21.365881
21.259785
##ZVALUE=240
2.037883
1.851916
4.768968
12.909770
34.722686
65.470934
132.935643
204.020739
318.482518
398.321748
452.116728
461.500883
438.193679
352.928638
277.501941
179.983974
137.608647
100.250840
94.023943
100.433826
114.933848
119.607449
118.137002
108.546615
85.616708
65.539479
47.838688
33.191442
19.484758
13.467669
9.766817
7.632971
7.212758
6.685853
6.982684
6.290674
6.401539
6.210804
7.493496
6.459951
6.230474
6.281734
6.415844
6.336570
6.461740
7.188916
6.392598
7.459521
6.618500
6.989837
7.060766
7.859468
7.118583
7.688999
7.607937
7.731915
7.980466
8.946657
8.824468
9.301901
9.323955
11.536479
11.301637
11.850595
13.326406
13.940930
15.504956
15.433431
17.512441
18.665791
19.696951
22.187829
25.264621
24.467707
26.917458
27.098656
26.213527
28.373599
26.988983
28.934479
27.618408
28.987527
27.783513
28.556585
28.542876
27.504563
29.182434
28.168559
28.935671
27.403831
27.582645
30.242801
28.884411
27.997494
27.874708
28.059483
##ZVALUE=245
1.755953
1.767874
1.664758
1.786947
4.060864
9.757876
31.585693
63.108802
141.116977
224.342942
357.551575
453.745723
517.977476
562.205911
544.379950
464.669466
373.415947
258.129835
185.294747
121.032596
102.412701
102.303624
116.961002
128.395557
133.923888
128.945708
115.688443
99.452734
74.449778
53.992867
38.656592
21.216869
14.614463
9.732842
8.544922
7.179976
7.158518
8.056760
7.074475
7.479787
6.743670
6.556511
6.046891
6.037951
6.486773
6.760955
6.481409
6.040931
6.410480
5.760789
6.698966
6.754994
6.957650
6.725788
6.727576
7.191896
8.552670
6.935596
7.754564
8.367896
8.311868
9.473562
11.055470
10.163784
11.604428
12.633801
13.506413
13.963580
16.628504
17.601848
18.341541
19.534826
21.398664
22.882819
22.880435
24.116635
25.622845
24.910569
27.561784
26.142597
26.502609
27.977824
27.162433
27.270913
29.208660
27.096868
28.932691
27.662516
28.291941
28.577447
28.511882
27.948618
27.150512
28.799772
28.351545
29.286742
##ZVALUE=250
1.578927
1.438856
1.646876
1.636744
1.806617
1.960993
2.106428
5.628467
25.519729
51.587820
127.981901
211.556554
318.740010
466.090441
560.899973
637.946725
644.282699
578.819513
494.534969
344.868898
241.450667
161.482692
106.194615
95.820427
107.979774
125.623941
139.162540
144.476891
138.674974
127.918720
107.857585
81.631541
59.017539
36.920905
22.495985
13.019443
8.873940
7.670522
7.258654
7.180572
7.309914
6.051660
5.774498
5.854964
5.758405
5.439520
5.978942
5.899668
6.145835
5.600452
6.486773
5.814433
6.513596
6.322861
6.388426
6.204844
6.072521
6.750822
7.144809
8.069873
7.650852
8.707643
9.235740
9.360909
10.296702
10.929704
11.828542
12.902617
14.150739
14.200807
16.219616
18.524528
18.445849
21.526814
22.243857
23.668408
21.979809
24.641752
24.796724
24.975538
24.546981
26.585460
26.644468
23.990870
25.582910
27.831793
27.085543
26.334524
26.254654
27.275681
27.644634
26.965737
27.384758
27.141571
28.636456
26.524663
##ZVALUE=255
1.417994
1.512766
1.595616
1.550913
1.329780
1.623631
1.654625
1.553893
1.848936
3.802776
16.437769
40.159822
82.430840
179.516673
283.923745
453.706980
559.375882
678.777695
725.767016
680.290461
595.490932
479.532480
309.196711
203.272700
116.371512
93.362927
90.879798
104.258657
131.666660
143.323541
150.546432
146.168470
131.662488
106.749535
85.251927
57.182908
38.004518
20.797849
13.890862
8.037686
7.006526
6.077886
5.913973
5.824566
5.864501
5.605817
5.788803
5.446672
5.781651
5.940795
5.806684
5.478859
6.116629
6.083846
5.833507
5.702972
6.175637
6.915927
6.328821
7.953644
7.866621
8.332729
8.043647
8.047819
8.508563
10.506511
11.217594
11.783838
12.531877
14.084578
15.076995
16.361475
17.285943
19.670725
19.874573
20.691752
21.547675
20.484924
22.052526
21.812916
22.984743
23.480654
23.897886
23.336411
25.311708
24.965405
24.995804
26.339889
25.494695
25.094748
25.907755
25.722980
25.551915
25.576949
25.831461
26.124716
##ZVALUE=260
1.286864
1.167655
1.245737
1.154542
1.602769
1.529455
1.654625
1.372695
1.861453
1.789927
1.909733
2.406836
6.789565
25.955439
59.586763
145.236850
241.550803
407.996774
547.788739
704.214573
780.428648
794.004798
706.877708
584.388971
393.504500
272.413492
159.881711
105.772614
79.821944
83.183646
102.324486
130.979419
143.857002
155.952573
151.798725
131.434798
111.815929
82.158446
58.989525
35.965443
23.556948
12.112856
8.271933
6.575584
5.488992
5.641580
5.870461
5.699992
5.294681
5.660653
5.083680
5.409718
5.621910
6.033778
5.771518
5.403757
5.890727
6.034970
6.103516
6.516576
7.220507
7.683635
7.532835
8.254647
8.553863
9.799600
9.655952
10.995865
11.693835
12.679696
12.827516
14.687777
16.223788
16.101599
16.907454
18.380880
18.825531
19.938946
19.977689
20.669699
20.247698
21.165609
21.969676
22.028685
23.146868
21.772981
22.260547
23.230910
23.784637
23.644567
24.347901
24.488568
23.767948
24.474859
23.827553
24.671555
##ZVALUE=265
1.071692
1.108646
1.133680
1.264811
1.177788
1.200438
1.143813
1.447797
1.592636
1.557469
1.488924
1.768470
1.580715
1.663566
3.898740
17.302632
43.215752
109.332800
197.766423
378.695726
526.715517
672.932863
827.068686
866.366625
794.225931
679.338574
504.190922
358.769894
200.489759
126.020908
77.801943
70.151687
81.294775
113.455653
133.074522
152.385831
155.267715
150.123835
132.545829
105.784535
85.560679
55.701733
38.278699
20.883679
13.302565
7.724762
6.264448
5.491972
5.156994
5.838871
5.573630
5.380511
6.282926
5.230904
5.243421
5.674958
6.004572
6.362796
6.096959
6.784797
6.423593
7.338524
7.310510
8.055568
8.228421
9.568930
9.721518
10.170937
11.178851
12.544990
12.887716
14.099479
14.911890
15.667677
15.998483
16.829967
17.546415
18.070936
18.301606
19.002557
19.136667
20.163655
19.970536
20.600557
21.032691
21.094680
22.156835
22.017956
21.747947
21.618605
21.406412
22.581816
22.818446
22.948980
23.142695
23.525953
##ZVALUE=270
1.196861
1.098514
1.153946
1.283884
1.147985
1.151562
1.169443
1.121759
1.427531
1.414418
1.222491
1.215935
1.266599
1.457930
1.536608
1.756549
2.241731
8.270741
23.594499
74.750781
152.512789
271.965861
484.640002
656.760931
838.977695
912.640691
892.148614
811.878443
635.442734
475.891829
327.573419
169.253945
101.677775
60.315728
60.919523
85.214972
109.223723
137.208700
152.808428
160.407424
153.487921
133.060813
112.301707
81.027746
59.327483
35.836697
22.342801
12.755990
9.276867
6.530881
5.868673
5.792975
5.654693
6.056428
6.236434
5.940795
6.275773
6.002784
6.499887
6.754994
6.739497
7.089972
7.421970
8.665919
7.729530
8.889437
9.136796
9.461641
10.229945
11.320710
12.370944
13.224483
14.596581
14.994740
16.109943
16.444921
16.552806
17.645955
17.792583
17.622709
18.341541
18.501878
18.926859
19.635558
19.852519
19.726753
20.930767
20.659566
21.597743
21.015406
20.732880
21.208525
21.599531
22.263527
22.473931
22.340417
##ZVALUE=275
1.006722
0.984669
0.833869
1.048446
0.700951
0.896454
0.950694
0.903606
0.827909
0.893474
1.037717
1.229644
1.192689
1.177788
1.365542
1.146793
1.376867
1.365542
1.703501
4.170537
14.071465
40.245652
119.754672
227.856636
433.734655
591.761470
787.600875
909.178853
961.419940
912.413597
797.989964
587.444901
419.690609
223.820806
130.514503
64.211488
49.365759
59.669614
78.367591
107.961893
128.823519
149.596930
155.072808
147.752762
133.953691
105.248690
84.131956
56.184530
40.152669
23.062825
14.937520
9.272695
7.408857
5.814433
5.798936
5.934834
5.938411
6.470680
6.982684
6.947517
7.016659
7.451773
7.773638
7.901788
7.982850
8.909702
9.147525
9.396672
10.145903
11.080503
11.894703
13.051629
13.287663
14.438629
14.912486
15.968680
16.230941
16.253591
16.742945
16.835928
17.404556
18.197894
18.698573
18.241405
19.140840
19.049644
18.699765
19.157529
19.056797
19.944906
20.652413
20.737648
21.104813
19.797683
20.498633
20.837784
##ZVALUE=280
0.999570
1.009703
0.964999
0.839829
0.913739
1.022816
1.291633
1.073480
1.185536
0.906587
1.102686
0.938773
1.110435
1.185536
1.171827
1.186728
1.272559
1.405478
1.395941
1.655817
1.838803
2.124906
9.609461
31.245947
96.881986
179.069638
336.298943
498.775840
720.298886
860.365629
945.202708
951.206684
863.207579
664.092898
493.047833
280.632973
166.097879
77.020526
46.525598
42.227507
54.436922
83.257556
103.365779
129.007697
145.356655
150.608420
147.547722
127.821565
110.967755
79.758763
60.326457
36.007762
25.173426
14.246702
9.991527
7.315874
6.622672
6.878972
7.069707
7.495880
7.173419
7.394552
8.251667
8.631945
9.259582
9.153485
9.895563
9.985566
10.846853
11.760592
12.498498
13.589859
13.760924
14.588833
15.360713
15.652776
16.532540
16.306639
17.098784
16.816854
17.495751
17.330647
17.941594
18.206835
18.265843
18.671751
19.399524
19.583702
19.619465
19.801855
20.242929
20.407438
20.926595
21.360517
21.723509
21.410584
##ZVALUE=285
1.031756
1.085997
0.886917
1.095533
0.962615
0.982881
0.914931
0.966787
1.016855
0.974536
1.105666
1.098514
1.235604
1.040697
1.077652
1.264811
1.356602
1.344681
1.319647
1.545548
1.672506
1.524687
1.622438
2.190471
4.566908
24.724603
57.775974
142.274499
240.967870
428.967476
592.270494
802.708864
919.874907
979.707837
922.370553
760.262609
593.498945
366.667509
228.749514
109.228492
58.320761
33.110976
34.133792
53.817630
72.383881
102.273822
122.021437
141.144991
146.472454
145.186782
131.029487
107.886791
86.965561
60.504675
40.872693
23.843646
15.869737
10.635853
8.321404
8.061528
7.726550
8.098483
8.742809
8.857846
9.250641
9.916425
10.865927
11.046529
11.552572
12.622476
12.816787
13.417602
14.042854
14.552474
15.118718
16.008615
16.458631
17.125607
16.663671
17.005801
17.700791
18.439889
17.702579
18.115640
18.850565
19.106865
19.077659
18.955469
19.123554
20.425916
20.590425
20.704865
21.608472
21.257997
22.251606
22.963881
##ZVALUE=290
0.744462
1.024604
0.656843
0.902414
0.738502
0.838637
0.926852
0.943542
0.863671
0.896454
0.881553
0.868440
0.851750
0.838637
0.867844
1.075864
1.080632
1.032948
1.149774
1.040697
1.228452
1.406670
1.359582
1.461506
1.926422
1.758933
2.561808
8.948445
38.541555
88.521838
194.777846
327.308774
496.467948
729.748011
870.871544
974.452496
962.646604
831.333995
677.685738
456.181765
299.931765
150.310993
77.617764
32.712817
24.457574
34.247637
48.144460
73.381662
92.768669
119.341612
134.779811
144.411922
141.434669
125.713944
107.700825
79.707503
60.257912
39.760470
26.805997
16.159415
11.799932
9.916425
9.383559
9.462833
9.813905
9.924769
10.907650
11.076927
11.844635
12.326837
12.952685
13.744831
14.827847
14.893413
15.943646
16.196966
16.571879
17.023683
17.583966
17.648935
18.064976
18.438697
18.382668
19.017458
18.896461
19.210577
19.488931
19.610524
20.102859
19.245744
20.571947
20.922422
21.096468
22.274852
23.222566
23.234487
##ZVALUE=295
0.896454
0.900626
0.864863
0.907779
0.995994
0.889897
0.961423
0.934601
0.924468
0.867844
1.006722
0.934601
0.958443
0.932813
1.032948
1.160502
1.043677
1.089573
1.242757
1.263618
1.124740
1.159906
1.088977
1.362562
1.603961
1.772642
1.646876
1.746416
1.924634
4.031658
14.887452
59.355497
127.079487
277.064443
429.152846
661.168694
813.774467
952.340961
975.349545
886.161923
751.833916
539.338589
372.753739
195.943713
108.142495
41.950941
23.540854
20.762682
28.236508
46.347976
63.991547
92.662573
109.712481
128.294826
137.205720
134.578943
123.529434
101.311803
82.776546
57.008862
41.344762
26.307702
18.909574
13.432503
11.505485
10.715723
11.127591
11.548996
12.059808
12.899637
13.798475
14.108419
14.946461
16.499758
16.029477
17.207861
16.955733
17.845631
17.888546
17.542839
18.258691
19.071698
18.627644
18.777847
19.222498
19.573569
20.054579
20.149946
20.417571
20.572543
20.721555
21.961927
21.916628
22.406578
23.368001
24.657845
##ZVALUE=300
0.858903
0.807643
0.849962
0.871420
0.788569
0.849962
0.901818
0.946522
0.955462
0.797510
0.826716
0.847578
0.907779
0.970960
0.986457
1.029968
1.034737
0.864863
1.023412
1.102686
1.177788
1.051426
1.283884
1.117587
1.361966
1.278520
1.499653
1.461506
1.672506
1.828671
1.927614
2.405643
6.456971
37.632585
90.365410
209.542513
344.355702
566.867590
740.736723
918.661952
982.144475
954.754949
842.000842
629.639626
460.155606
258.622766
154.995918
69.641471
34.883618
16.701818
17.008781
27.306676
39.420724
60.814619
80.836415
106.249452
120.865703
130.325556
128.084421
118.263960
104.709864
79.559684
61.537623
41.844845
29.767752
19.838810
15.808940
13.474822
13.580918
13.553500
14.408827
14.939904
15.252829
16.206503
16.794801
17.159581
17.457604
18.084645
18.429756
19.090772
18.709898
19.414425
19.609928
20.296574
19.922853
19.861460
20.455718
20.696521
20.817518
21.368861
22.095442
22.266507
22.913814
23.402572
23.752451
24.484992
##ZVALUE=305
0.968575
1.018643
0.833869
0.995994
0.879765
0.976920
0.885725
1.090765
1.018643
1.015663
1.040697
0.980496
1.098514
1.103878
1.065731
1.010895
1.065731
1.107454
1.202822
1.144409
1.245737
1.298785
1.169443
1.424551
1.397729
1.544952
1.438856
1.458526
1.615882
1.584888
1.610518
1.683831
1.942515
2.182722
3.904700
24.180412
66.908598
170.251727
288.263559
497.488976
666.772723
864.014626
958.864689
978.266597
899.933577
705.368519
546.873808
346.592665
216.159821
96.900463
48.835874
19.397736
13.405681
17.832518
24.966598
41.208863
57.478547
81.179738
97.813606
116.916895
125.112534
124.577880
116.540790
99.216700
80.429912
58.017969
43.190718
29.675961
22.875667
17.622709
16.151667
15.569925
15.945435
16.900897
17.266870
17.500520
18.448830
19.123554
19.245744
18.847585
19.721985
20.294785
20.572543
20.511746
20.787716
20.984411
21.346807
21.709800
22.318959
21.901727
22.985935
23.535490
23.753643
24.278760
24.533868
25.310516
##ZVALUE=310
0.771880
0.776649
0.633597
0.810623
0.735521
0.814795
0.993609
0.841618
0.729561
0.795722
0.895858
0.772476
0.881553
0.854731
0.969768
0.930429
1.056790
0.891685
0.971556
1.006722
1.002550
0.874996
1.106858
1.055598
1.064539
0.992417
1.041889
1.162887
1.139641
1.203418
1.357794
1.320839
1.309514
1.461506
1.688600
2.040863
2.129674
11.014938
38.744807
121.305585
219.861865
408.207774
578.625798
795.464516
910.620689
986.785889
952.704549
806.968808
658.691525
442.607999
295.499563
147.172809
79.651475
30.467510
14.980435
11.780858
15.059710
23.856759
33.971667
53.516626
69.927573
93.770623
108.130574
118.478537
119.337440
110.649467
98.822713
77.808499
61.437488
43.801665
33.839941
24.042726
20.572543
18.108487
18.011928
18.301606
18.281937
19.014478
18.866658
19.921660
20.077825
20.243526
20.934939
21.189451
21.208525
21.314621
21.439791
22.203922
22.325516
22.943616
23.087859
23.795962
24.491549
24.988651
25.249720
26.625991
##ZVALUE=315
0.805855
0.932813
0.878572
0.848770
0.833869
0.728965
0.779629
0.921488
0.788569
1.029968
0.912547
0.953674
0.921488
0.971556
0.972748
0.796914
1.019835
1.047850
0.797510
0.931621
0.941753
1.007915
1.157522
1.008511
1.104474
1.069903
0.951886
1.094937
1.019835
1.200438
1.187921
1.350641
1.333952
1.416802
1.480579
1.674891
1.738667
1.865625
1.946688
4.180670
17.894506
79.369545
162.711740
330.074430
503.069758
748.765469
884.912014
1002.618670
1014.840007
925.007463
787.778497
560.050607
394.432545
209.629536
114.001632
44.017434
20.652413
11.218786
11.332631
15.621781
21.381974
34.978986
48.180819
69.797635
86.888671
104.357600
113.270879
114.243627
109.041929
93.547702
80.193877
61.121583
47.210455
33.046603
26.603937
21.240711
19.916892
19.655824
19.598603
20.038486
19.960999
20.574927
21.231771
21.791458
21.880865
22.181869
22.336841
22.954941
23.336411
23.963451
23.846626
24.641752
26.362538
26.653409
27.468801
28.451681
##ZVALUE=320
0.731945
0.723600
0.658631
0.748634
0.771880
0.699759
0.751615
0.872612
0.899434
0.709891
0.861883
0.835657
0.857711
0.825524
0.724792
0.680685
0.690818
0.899434
0.513792
0.845790
0.919700
0.874996
0.863671
0.911951
1.147985
0.928640
1.073480
1.080632
0.995994
1.022816
1.084805
1.157522
1.184940
1.191497
1.287460
1.231432
1.362562
1.582503
1.716614
1.841784
1.660585
2.417564
7.422566
46.323538
114.239454
269.373655
428.440571
678.504705
852.044821
1009.782553
1015.638709
1015.638709
935.499668
710.693598
516.620874
288.612843
163.588524
70.750713
34.213662
13.745427
10.356903
11.558533
14.475584
21.631718
29.888749
47.152638
63.243508
83.962679
97.955465
109.125972
110.305548
104.221702
94.196796
73.726773
60.505867
44.371486
35.398602
27.406812
23.758411
21.260977
20.804405
21.163821
21.749735
21.753907
22.074580
22.876859
22.452474
22.871494
23.580790
24.708509
25.510788
26.088953
26.676655
28.176904
29.211640
29.752851
##ZVALUE=325
0.749826
0.730753
0.723600
0.690818
0.697970
0.789762
0.691414
0.606775
0.749826
0.830889
0.864863
0.806451
0.698566
0.815988
0.906587
0.879765
0.790954
0.932813
0.850558
0.889897
0.866652
1.001954
0.848770
0.843406
0.797510
0.870824
0.999570
0.944734
1.051426
1.139641
1.170635
1.087785
1.415610
1.014471
1.196861
1.122952
1.077652
1.315475
1.529455
1.289845
1.470447
1.640916
1.796484
2.142787
4.167557
28.445721
77.446699
199.849606
336.126685
580.803752
781.475902
999.167562
1015.638709
1015.638709
1009.337902
801.206827
600.090623
357.306004
219.464898
101.816654
50.479770
18.658638
11.070967
10.567904
11.732578
15.655756
21.403432
32.523870
44.767857
64.439774
79.647899
95.716715
103.361607
105.222464
99.835992
86.474419
73.961616
57.590604
46.153665
33.809543
28.426647
24.522543
22.823811
22.141933
21.663904
22.647977
22.493601
22.970438
24.268627
24.937987
25.555491
27.582645
29.223561
30.589700
31.524897
32.965541
##ZVALUE=330
0.710487
0.721812
0.860691
0.848770
0.738502
0.729561
0.813603
0.725985
0.781417
0.526905
0.692606
0.770688
0.818968
0.756979
0.773668
0.911951
0.809431
0.827909
0.921488
0.959635
0.900626
0.841618
0.809431
0.833869
1.019835
0.882745
0.882745
0.933409
0.943542
0.902414
1.002550
0.985861
1.003742
0.744462
1.173615
1.150966
1.231432
1.070499
1.339912
1.396537
1.335740
1.606941
1.513958
1.842976
1.817942
1.993775
2.474785
10.874867
37.934780
133.528709
251.869559
485.989451
695.836544
978.418589
1015.638709
1015.638709
1015.638709
948.845744
748.152733
472.353697
304.525495
144.222975
75.599551
28.657913
14.217496
10.827780
11.028647
12.474656
15.435815
23.223758
31.341910
44.898987
59.726834
78.347921
89.940429
99.696517
101.121664
94.819665
86.059570
68.857670
56.673884
43.259859
35.472512
28.950572
25.474429
23.223758
22.943616
23.054481
23.914576
25.013685
26.197433
28.328896
30.259490
32.160878
33.853650
36.076903
##ZVALUE=335
0.724792
0.712872
0.595450
0.592470
0.814795
0.752807
0.627637
0.702739
0.714660
0.700951
0.690818
0.570416
0.760555
0.734925
0.938773
0.940561
0.802875
0.768900
0.963807
0.763535
0.684857
0.610948
0.758767
0.769496
0.708699
0.764728
0.815988
0.922680
0.947714
1.014471
1.045465
1.000762
0.987649
1.051426
0.975728
0.987649
1.128912
1.024604
1.207590
1.043677
1.088977
1.117587
1.121759
1.269579
1.257658
1.613498
1.825690
1.845956
1.973510
4.481673
19.087791
79.823732
170.151591
363.780856
564.572811
854.541659
1009.602547
1015.638709
1015.638709
1000.249982
841.661692
574.586987
390.780568
205.572844
110.328794
39.114952
18.339753
11.373758
11.138916
11.997819
13.285875
16.819835
21.772981
32.484531
43.175817
60.907602
73.326826
87.667704
93.958974
96.579790
90.980530
78.916550
68.336725
55.605769
45.423508
36.356449
30.500889
26.764870
25.906563
26.293993
27.479529
29.963851
32.356977
34.850836
36.566854
38.707852
##ZVALUE=340
0.653863
0.687838
0.663996
0.685453
0.737906
0.730753
0.657439
0.708699
0.734925
0.816584
0.553727
0.659823
0.822544
0.724792
0.790954
0.701547
0.916719
0.781417
0.991821
0.869632
0.725985
0.929832
0.710487
0.755787
0.766516
0.774860
0.754595
0.880957
0.902414
0.870824
0.780821
0.931621
0.998974
0.862479
0.971556
0.959635
1.135468
1.059771
0.924468
1.039505
1.081824
1.005530
1.270771
1.242757
1.168847
1.292825
1.281500
1.533628
1.489520
1.670718
1.774430
2.335906
10.467768
36.299825
122.134686
237.289667
474.670529
671.141744
916.224718
1015.638709
1015.638709
1015.638709
890.401006
703.154802
445.072651
282.675028
134.771466
65.864921
21.567941
12.567639
11.194944
11.604428
12.618899
13.656616
17.230511
21.926761
31.771660
41.909814
58.021545
70.178509
83.392859
89.083910
90.087652
87.053776
77.549815
68.146586
54.474473
46.533942
37.764907
33.959746
31.940937
32.093525
33.432841
36.032796
39.236546
41.154623
##ZVALUE=345
0.710487
0.662804
0.811815
0.582933
0.712872
0.634789
0.722408
0.750422
0.730753
0.847578
0.774860
0.653863
0.618696
0.748634
0.716448
0.809431
0.812411
0.666976
0.646710
0.641942
0.762939
0.889897
0.656843
0.808835
0.743866
0.679493
0.777841
0.763535
0.858903
0.722408
0.750422
0.933409
0.972748
0.789762
1.036525
0.945926
0.869632
0.878572
0.853539
1.060963
1.146793
0.985861
1.087785
1.076460
1.208782
1.178980
1.225471
1.222491
1.305938
1.316667
1.450777
1.542568
1.691580
1.956820
3.904700
21.851659
63.574910
168.463588
295.991898
519.432425
699.114799
916.931629
1011.685729
1015.638709
953.539014
745.756626
562.765598
340.299010
196.253657
79.336762
36.714673
15.229583
11.624694
11.229515
12.018681
12.564659
13.930798
16.588569
21.247864
29.919744
39.376616
54.545999
64.198971
75.639486
81.866980
85.523725
82.964897
76.178908
69.122910
59.124827
51.191449
43.969750
41.509867
41.305423
41.956902
43.645501
##ZVALUE=350
0.690818
0.697970
0.877976
0.486970
0.505447
0.685453
0.728965
0.622869
0.615716
0.615716
0.688434
0.674725
0.632405
0.533462
0.798702
0.726581
0.767708
0.783801
0.623465
0.762939
0.846982
0.772476
0.851750
0.596642
0.829697
0.719428
0.694990
0.659823
0.769496
0.774860
0.787973
0.814795
0.774860
0.758767
0.945926
0.832677
0.951886
0.953674
0.976920
0.837445
0.950694
0.881553
0.934601
1.114607
0.969768
1.018643
1.111627
0.979900
1.016855
1.062751
1.339912
1.178980
1.350641
1.520514
1.532435
1.779795
2.217889
11.347532
36.332607
111.839771
210.008621
403.729677
566.730499
764.792562
890.473723
962.311029
918.921828
769.990683
599.820614
368.109941
228.708982
102.973580
49.165487
17.396808
11.595488
10.823607
11.239648
11.223555
12.207627
13.394952
15.795827
21.153688
27.505755
36.761761
46.458840
59.424639
68.183541
77.091455
80.577731
81.479549
78.127980
71.732998
66.182613
59.340596
55.429935
51.922798
##ZVALUE=355
0.688434
0.580549
0.575781
0.720620
0.575781
0.700951
0.626445
0.741482
0.706911
0.740886
0.762939
0.727773
0.869632
0.845790
0.840425
0.702739
0.597835
0.789762
0.776649
0.737906
0.633597
0.585914
0.800490
0.852942
0.778437
0.864863
0.886917
0.961423
0.839829
0.831485
0.833869
0.880957
0.782609
0.853539
0.899434
0.837445
0.858903
0.882745
0.748634
0.955462
1.017451
0.832677
0.922680
1.057982
0.859499
0.947714
1.069903
1.123548
1.034737
1.096725
1.129508
0.967979
1.234412
1.252890
1.240969
1.308918
1.375675
1.685619
1.870990
5.632639
19.669533
74.909925
153.359771
306.424499
462.029576
683.946013
815.939903
914.042592
913.909674
792.746544
651.704669
447.714925
294.348001
138.634443
68.601966
23.772717
12.810826
10.474920
10.196567
10.626912
11.348724
12.081861
12.879968
15.726686
18.502474
24.883747
32.701492
45.759678
54.904819
67.446828
76.725483
83.556771
85.971951
84.476471
81.545711
75.849891
##ZVALUE=360
0.648499
0.671744
0.608563
0.609756
0.728965
0.652671
0.789762
0.786781
0.778437
0.806451
0.771880
0.719428
0.626445
0.615716
0.725985
0.789762
0.789762
0.719428
0.763535
0.753999
0.789762
0.790954
0.776649
0.678897
0.774860
0.874996
0.753999
0.730753
0.613928
0.922680
0.816584
0.813603
0.908971
0.654459
0.841618
0.745654
0.785589
0.813603
0.761747
0.777841
0.808835
0.877976
0.976920
0.910759
1.040697
0.801682
0.933409
1.016855
1.008511
1.109838
1.084805
1.127720
1.288652
1.184940
1.247525
1.277924
1.358986
1.520514
1.410842
1.590848
1.827478
2.871752
9.171963
39.682984
95.154643
229.226947
361.175537
555.873513
701.119900
827.959776
855.321884
791.973472
678.765774
478.236675
331.524014
172.515512
95.771551
38.864613
17.545819
9.900928
9.609461
9.894967
10.327697
10.805726
11.440516
12.786984
14.648438
19.108653
24.390817
33.780932
43.957829
59.444904
70.416927
83.569884
90.543628
94.583631
##ZVALUE=365
0.644922
0.580549
0.721812
0.648499
0.632405
0.663996
0.753999
0.657439
0.562668
0.669956
0.733733
0.532866
0.750422
0.800490
0.866652
0.767708
0.718832
0.780821
0.719428
0.549555
0.660419
0.654459
0.641942
0.789762
0.730753
0.794530
0.783801
0.847578
0.758767
0.914931
0.764728
0.907779
0.809431
0.727773
0.835657
0.880957
0.782609
0.786781
0.868440
0.784993
0.748634
0.953674
0.896454
0.862479
0.943542
0.921488
0.912547
1.063943
1.116991
0.993609
1.124740
1.065731
1.132488
1.011491
1.212955
1.142621
1.318455
1.327991
1.327991
1.348853
1.424551
1.654625
1.697540
1.941919
4.173517
25.299788
64.550638
163.660645
283.662677
483.514667
626.668930
765.990019
823.718905
797.816515
708.088875
531.147718
390.623808
228.290558
130.962729
52.205920
23.234487
10.215640
9.342432
9.523630
9.960532
10.444522
11.744499
13.126731
15.364885
18.817782
23.919940
33.245683
41.401982
55.443645
65.924525
79.537630
##ZVALUE=370
0.649691
0.703931
0.588894
0.760555
0.459552
0.634789
0.590682
0.622869
0.763535
0.736713
0.601411
0.647902
0.675917
0.731945
0.711679
0.603795
0.602603
0.691414
0.649691
0.689626
0.775456
0.860691
0.831485
0.781417
0.826716
0.818968
0.643730
0.684857
0.775456
0.795722
0.991821
0.699759
0.806451
0.847578
0.811815
0.853539
0.885725
0.806451
0.835657
0.910759
0.838637
0.886917
0.857711
0.836849
0.853539
0.889897
0.865459
0.854731
0.974536
1.026988
0.828505
0.827909
0.998974
1.067519
0.984669
1.027584
1.076460
0.996590
1.118779
1.108646
1.271963
1.343489
1.348853
1.326799
1.546741
1.532435
2.406836
13.572574
42.980909
131.435990
230.337977
395.804644
543.605685
714.605451
784.724951
784.710646
719.722509
570.740700
432.367921
252.315998
148.442984
63.656569
31.863451
14.048815
9.474754
9.467602
10.268688
11.859536
13.753772
16.566515
19.590855
25.548935
31.061769
39.536953
46.347976
56.992769
##ZVALUE=375
0.735521
0.718832
0.541806
0.678897
0.566840
0.676513
0.560880
0.705719
0.668764
0.660419
0.755787
0.706911
0.778437
0.702739
0.748634
0.818968
0.623465
0.624657
0.704527
0.739694
0.656843
0.660419
0.793934
0.763535
0.659823
0.727773
0.883937
0.675917
0.678897
0.691414
0.793934
0.664592
0.732541
0.808835
0.813603
0.779629
0.843406
0.862479
0.846982
0.743866
0.791550
0.817776
0.842810
0.819564
0.824928
0.972748
0.998974
1.047850
1.054406
0.839829
0.749826
0.836849
0.872612
0.890493
0.751615
0.934601
0.991821
1.043677
1.055598
1.050830
1.052618
1.204610
1.030564
1.229644
1.148582
1.198649
1.513958
1.688600
1.778603
5.644560
21.189451
76.897740
157.934427
326.232910
477.668643
662.573576
768.409967
814.383030
780.123472
645.514727
511.315465
324.884653
213.115811
112.534761
59.535503
22.188425
12.237430
10.530949
11.835694
14.419556
17.221570
21.960735
25.823712
31.277537
35.275817
40.556788
##ZVALUE=380
0.573993
0.634789
0.636578
0.494719
0.504851
0.673532
0.465512
0.514984
0.525713
0.565648
0.602603
0.576973
0.441670
0.554919
0.567436
0.653863
0.583529
0.583529
0.691414
0.704527
0.649691
0.450611
0.558496
0.709891
0.545979
0.430942
0.486970
0.571609
0.558496
0.655651
0.675917
0.451803
0.524521
0.784993
0.565648
0.741482
0.742674
0.584722
0.645518
0.709891
0.597835
0.750422
0.610948
0.621676
0.541806
0.710487
0.699759
0.694990
0.633597
0.667572
0.767708
0.778437
0.793934
0.824928
0.837445
0.863671
0.892878
0.986457
0.868440
0.766516
0.818968
0.748634
0.717640
0.947714
0.996590
1.156926
1.125932
1.245737
1.311898
1.535416
1.656413
2.543926
10.914803
35.835505
112.471581
204.304457
373.697877
525.694489
697.220564
765.805840
775.439739
700.202584
560.310483
432.374477
267.862678
166.633725
75.097680
36.037564
13.978481
10.801554
11.957884
13.095737
15.762448
18.077493
20.773411
22.733808
##ZVALUE=385
0.649691
0.503659
0.532866
0.541806
0.580549
0.515580
0.642538
0.657439
0.677705
0.794530
0.568628
0.617504
0.637770
0.551939
0.558496
0.623465
0.588894
0.570416
0.618696
0.767708
0.660419
0.662804
0.509620
0.665784
0.646710
0.626445
0.740886
0.598431
0.531673
0.688434
0.764728
0.723600
0.639558
0.697970
0.649691
0.712872
0.783801
0.721812
0.855923
0.661612
0.709891
0.810623
0.746846
0.765920
0.854731
0.647902
0.717640
0.712872
0.647902
0.889897
0.899434
0.958443
0.771880
0.850558
0.875592
0.828505
0.911951
0.795722
0.687838
0.817776
0.836849
0.789762
0.975728
0.975728
0.967979
1.150966
1.136661
1.140833
1.185536
1.424551
1.423955
1.566410
1.760721
1.898408
4.151464
21.425486
56.695938
146.694779
259.313583
455.653667
601.148605
740.133524
781.422853
754.283667
678.707957
526.821613
396.875739
235.480666
144.499540
63.715577
27.974844
11.261702
10.279417
11.210442
12.285709
13.250709
##ZVALUE=390
0.582933
0.572801
0.571609
0.544786
0.630617
0.670552
0.604987
0.742674
0.557899
0.580549
0.587702
0.589490
0.506639
0.654459
0.599623
0.688434
0.602603
0.715852
0.607967
0.561476
0.635982
0.547767
0.703931
0.835657
0.730753
0.675917
0.486970
0.653863
0.778437
0.725985
0.830889
0.660419
0.626445
0.589490
0.593662
0.800490
0.640750
0.674725
0.778437
0.666976
0.769496
0.701547
0.714660
0.703931
0.758767
0.523925
0.748634
0.657439
0.714660
0.816584
0.801682
0.644922
0.806451
0.739694
0.872612
0.744462
0.767708
0.859499
0.902414
0.826716
0.784993
0.777841
0.918508
0.924468
0.831485
0.855923
1.017451
1.080632
1.075864
1.234412
1.322627
1.212955
1.284480
1.475811
1.601577
1.682639
2.499819
10.540485
34.188628
104.621649
195.990801
365.543962
495.025516
637.812018
714.809895
745.877624
699.135661
577.347875
463.051796
309.675932
194.785595
88.182688
42.053461
14.046431
7.833838
7.186532
##ZVALUE=395
0.599623
0.623465
0.563860
0.546575
0.645518
0.554919
0.617504
0.605583
0.554919
0.529885
0.725985
0.546575
0.483990
0.651479
0.656843
0.609756
0.591874
0.467896
0.617504
0.752807
0.647902
0.682473
0.583529
0.524521
0.644922
0.767708
0.689626
0.686646
0.693798
0.723600
0.678897
0.611544
0.620484
0.656843
0.783801
0.599623
0.639558
0.592470
0.319481
0.768900
0.758767
0.620484
0.660419
0.671744
0.719428
0.761747
0.710487
0.669956
0.786781
0.657439
0.737906
0.846982
0.793934
0.694990
0.759959
0.721812
0.684857
0.785589
0.694990
0.682473
0.824928
0.883937
0.747442
0.829697
0.836849
0.887513
0.821948
1.047850
0.998974
1.211762
1.073480
1.240969
1.255870
1.261830
1.302958
1.455545
1.441836
1.353621
1.761913
7.080436
24.636984
81.955791
154.769421
290.237665
427.191854
612.275004
725.557804
791.683793
769.254565
662.999749
533.535480
350.036621
230.410695
109.926462
55.895448
18.730760
##ZVALUE=400
0.555515
0.710487
0.563860
0.594854
0.469685
0.641942
0.541806
0.634789
0.476837
0.589490
0.541806
0.603795
0.424981
0.466704
0.598431
0.560880
0.547767
0.531673
0.463724
0.616908
0.596642
0.628829
0.418425
0.754595
0.680685
0.661612
0.619888
0.492930
0.501871
0.679493
0.627637
0.650883
0.546575
0.593662
0.552535
0.617504
0.633597
0.659823
0.644922
0.764728
0.693798
0.773668
0.718832
0.591874
0.581741
0.613928
0.666976
0.704527
0.813603
0.732541
0.740886
0.662804
0.625849
0.718832
0.766516
0.752807
0.752807
0.737906
0.723600
0.767708
0.867844
0.880957
0.868440
0.835657
0.716448
0.894666
0.813603
0.968575
0.896454
1.163483
1.133680
1.173615
1.126528
0.890493
1.174808
1.215935
1.047850
1.292825
1.199841
1.256466
1.581907
4.465580
14.662743
50.538778
108.307600
235.234499
363.577008
547.148585
657.543540
742.878914
746.645927
656.131506
551.223755
392.063856
269.748569
146.641731
##END
