##TITLE=QP00652
##FORMAT=SPECTACLE-ASCII V-1.2
##DATA TYPE=ULTRAVIOLET SPECTRUM
##SECOND TYPE=ULTRAVIOLET SPECTRUM
##DATE=01/21/18
##TIME=16:00:57
##SPECTROMETER/DATA SYSTEM=SPECTACLE
##XUNITS=NM EM
##YUNITS=ENERGY
##YFACTOR=1
##FIRSTX=220
##LASTX=410
##NPOINTS=96
##3DDATA=Equidistant
##ZUNITS=NM EX
##FIRSTZ=210
##LASTZ=400
##ZPOINTS=39
##XYDATA=(Y..Y)
##ZVALUE=210
1.896620
1.523495
1.652837
1.719594
1.815557
2.482533
2.213717
2.177954
2.453923
2.109408
1.902580
2.290606
2.599955
2.480745
2.511740
2.940893
3.990531
3.208518
3.185868
3.510714
3.997684
3.886819
3.964901
4.561543
4.181862
5.172491
5.092621
4.265904
5.271435
5.683899
6.068945
6.000996
6.245971
5.713701
6.316900
6.950498
7.344484
6.319880
6.961823
7.406473
8.425713
7.926822
7.740855
8.411407
8.245707
7.908940
9.473562
9.317994
9.223819
8.634925
10.601878
10.383725
9.488463
9.893775
10.632873
10.266900
10.656714
11.100769
11.722445
11.069775
11.291504
10.813475
10.865927
11.789799
11.304617
12.193918
13.522506
15.151501
16.893744
20.568967
24.907589
28.700829
33.275485
40.161610
44.235587
46.132803
45.361519
46.357512
44.151545
43.749809
39.982796
34.686923
31.884909
26.431680
21.113753
17.798543
14.599562
12.705922
11.362433
10.605454
10.667443
10.415912
11.916757
10.606647
11.191964
11.656880
##ZVALUE=215
8.250475
7.982850
7.675886
5.957484
5.139709
4.577637
3.599524
3.535748
4.248619
4.121661
3.390908
3.725886
4.300475
3.264546
4.124641
3.403425
3.249645
3.064871
3.285408
3.639460
4.216433
3.327727
4.703999
4.855990
5.180836
4.959702
5.737543
5.705953
5.965829
6.503463
5.920529
6.976724
6.653666
6.014705
6.068945
7.076859
6.821752
7.396936
6.919503
8.244514
7.459521
7.750988
7.536411
7.925630
7.826686
8.518696
7.431507
8.633733
7.529855
9.164810
8.981824
9.091496
8.531809
8.683801
8.676648
9.427667
9.486675
10.228753
9.446740
10.174513
9.540915
10.239482
10.210872
9.764433
9.785891
10.324717
10.711551
13.218522
14.712811
15.440583
19.105673
20.404458
24.615526
28.410554
31.076670
32.573938
33.591986
30.958652
30.752420
28.048754
24.413466
21.894574
18.116832
18.099546
13.734698
12.683868
11.739731
10.517836
10.555983
9.573698
8.356571
8.294582
10.529757
9.876490
8.889437
8.689761
##ZVALUE=220
19.519925
20.780563
25.524497
25.189519
22.906661
17.830729
15.320778
10.799766
9.467602
8.977652
10.202527
10.268688
10.304451
10.186434
9.627938
6.752610
5.554557
4.109740
4.242659
3.735423
3.646612
4.229546
3.659725
3.990531
4.938841
3.993511
3.586411
4.930496
5.328655
5.767941
5.562901
5.790591
6.156564
5.785823
6.538630
7.736683
7.281899
6.722808
6.199479
7.192492
6.201863
7.425547
7.033944
7.182956
7.031560
7.357597
8.317828
7.450581
8.409619
7.306933
8.434653
8.039474
8.752942
7.904768
7.635951
8.695722
8.497834
9.059906
8.943677
8.494854
9.201765
9.234548
9.744763
9.486675
8.061528
10.318756
10.519624
11.576414
11.990666
14.481544
17.140508
17.162561
21.221638
23.905635
27.502775
30.115843
29.134750
27.607679
26.514530
26.145577
22.020936
21.481514
18.809438
17.746687
14.271736
12.655854
11.589527
10.437965
9.146929
8.351803
8.705854
8.948445
7.811785
9.005666
7.972717
8.364916
##ZVALUE=225
32.818913
34.439564
48.725605
60.857534
69.828629
73.509812
68.950653
51.900744
42.757988
28.860569
24.289489
20.613670
22.381544
23.349524
23.808479
22.769570
19.701719
15.452504
12.129545
7.545948
5.273819
3.952980
3.888607
4.415512
3.932714
4.694462
5.289912
5.321503
4.680753
5.568862
6.775856
6.478429
7.929802
6.599426
7.672906
7.589459
8.318424
7.998943
7.225871
8.041859
8.457899
7.682443
7.933974
8.614659
7.487535
7.966757
8.077621
8.202791
7.876754
8.344650
9.505749
8.701682
9.507537
8.772612
8.534789
7.515550
8.378625
8.446574
9.016991
8.879900
8.076429
8.234978
9.331703
9.514689
8.612871
9.312630
9.672642
11.636615
10.931492
14.222860
16.811490
17.428994
18.939972
20.770431
22.841692
22.689700
23.719668
23.912787
22.217631
22.158623
19.213557
18.296838
15.520453
14.778972
12.912750
11.374950
10.938644
10.700822
10.529757
10.118484
9.389520
10.000467
10.332465
8.790493
8.815527
9.608865
##ZVALUE=230
25.569797
28.637648
49.684644
86.278915
118.401647
150.815845
171.542764
177.861452
161.877871
137.940645
95.392466
66.773891
49.008727
42.824745
44.762492
45.852661
49.671531
51.615834
43.443441
35.000443
27.474761
17.210841
12.695789
8.435845
6.130934
5.374551
4.896522
5.906820
6.353855
6.551743
7.502437
7.047653
7.199645
7.511973
7.930994
7.482767
7.630587
8.514524
8.395910
8.429885
9.098649
8.180737
7.404685
7.445812
8.033514
8.418560
8.491874
8.596778
8.087754
8.750558
8.356571
8.263588
9.014606
9.173751
8.596778
9.478927
9.217858
9.258986
9.977818
10.519624
9.886622
11.254549
10.635853
10.432601
10.675788
10.781884
11.455417
11.671782
13.439655
14.049411
16.323924
19.175410
20.611882
23.185611
24.035573
25.230646
26.631951
26.171803
26.463866
24.181604
22.448897
18.940568
19.999743
16.551614
16.680956
15.157461
13.814569
13.206601
13.272762
11.793971
12.657642
14.175773
12.437701
12.841821
12.414455
11.597872
##ZVALUE=235
9.843707
11.505485
32.998919
63.920617
123.960972
193.998814
278.679729
346.390009
396.257639
376.694798
331.050754
264.705420
198.758841
128.958821
97.319484
75.101852
72.494745
77.878833
80.177784
78.796744
74.644685
64.083934
51.576495
35.769939
24.437904
14.552474
11.301637
7.286668
6.803870
6.516576
6.815791
7.784963
7.294416
8.783937
7.680655
6.897449
8.712411
9.039640
8.395910
8.767843
8.109808
9.005666
9.370446
8.806586
8.324981
9.626746
7.657409
8.680820
9.672642
10.357499
8.903742
9.955764
9.027719
9.395480
10.347962
10.858774
10.874867
12.078881
11.157990
11.377931
13.485551
12.186766
14.341474
11.726618
14.606714
13.934970
14.941692
15.978813
17.838478
18.857718
21.247864
23.409724
27.456880
29.566884
29.238462
31.498671
29.367805
30.705929
29.346943
27.227998
26.426911
22.081733
21.811724
22.150874
20.651817
18.344522
17.673969
18.543601
17.464757
16.367435
16.662478
17.235875
16.764998
16.092658
16.428828
16.996861
##ZVALUE=240
1.862645
1.894832
4.597902
17.735958
45.140982
103.610754
178.854465
315.705538
433.597565
537.060499
619.575977
611.241460
528.924465
436.640978
313.293934
223.286748
138.285756
110.526681
98.078847
102.365613
114.039779
118.474960
115.847588
100.501776
89.529753
62.783957
46.595931
29.103756
20.816922
12.201667
10.839701
9.691715
8.493662
8.809566
8.756518
8.399487
8.801818
8.802414
9.542704
8.642673
8.102655
8.887649
8.528829
8.906722
7.934570
8.418560
9.254813
9.515882
9.415746
10.358691
9.660721
9.791851
10.334849
10.016561
10.421872
9.906888
10.393858
11.850595
13.137460
11.156797
12.631416
12.149811
13.102889
14.641881
14.038682
16.710758
15.558600
16.130805
18.574595
18.737912
24.202466
25.673509
26.805997
29.235482
31.000972
31.400919
33.299923
31.817555
28.724670
29.307604
28.083920
25.254488
23.396611
22.453666
21.871924
19.790530
22.089481
20.922422
19.360781
19.635558
19.519925
19.328594
17.875433
19.197464
20.098686
18.142462
##ZVALUE=245
1.389980
1.484752
1.440644
1.319647
4.093647
22.375584
57.778955
143.128633
249.972939
416.321754
551.867485
703.943968
758.043528
742.640495
688.097477
556.364655
438.560843
290.930867
204.463601
129.141808
104.996562
97.909570
116.199851
130.904913
132.795572
128.706694
116.632581
97.966790
72.682500
54.036975
34.824610
24.502873
15.864968
10.259748
9.246469
8.730888
8.597970
8.418560
8.340478
7.431507
8.447766
7.927418
8.150935
8.044839
8.697510
8.182526
7.200837
8.113980
8.629560
8.825660
7.994771
9.358525
8.887649
9.186864
9.534955
9.593964
8.942485
9.646416
11.077523
9.949803
10.505915
10.445714
11.190772
11.658669
11.989474
13.197660
14.439821
15.180707
15.629530
17.173886
20.478964
24.398565
26.072860
26.627779
28.996468
28.794408
29.635429
28.119683
27.410984
24.837852
25.003552
25.385618
22.772551
22.694468
21.683574
19.801855
19.771457
18.818974
19.657612
20.313859
18.460751
19.328594
19.356608
19.921660
17.817616
19.165874
##ZVALUE=250
1.426935
1.370907
1.560450
1.566410
1.477599
1.521707
2.879500
12.310743
51.235557
108.547807
254.006982
426.892638
603.043437
838.105679
987.898707
1016.007662
1016.007662
904.218554
745.475888
505.774617
335.033536
212.200880
124.302506
101.636648
109.303594
125.416517
140.252709
141.076446
139.244795
127.751827
109.529495
79.625845
60.692430
37.509799
24.729967
14.697909
11.531711
9.468794
8.397698
8.073449
7.696748
8.042455
8.959770
8.770823
8.364916
8.094907
7.460713
7.220507
8.086562
7.808805
7.595420
7.827878
8.279681
8.202791
8.106828
8.573532
8.011460
9.473562
8.479953
9.651780
9.088516
9.947419
9.747744
9.589791
10.797977
11.463761
11.686683
13.228655
14.348626
15.429854
17.500520
18.580556
20.951629
22.306442
23.846626
24.922490
24.747849
23.943782
23.675561
22.223592
21.221638
19.821525
19.199848
18.392801
19.455552
17.101765
16.968846
19.513965
17.908812
17.265677
17.709732
18.438697
17.329454
17.141700
18.149614
17.832518
##ZVALUE=255
1.047850
0.995994
1.094937
1.082420
1.145601
1.404881
1.288652
1.377463
1.940727
4.663467
25.656819
64.419508
125.249624
264.623761
407.090783
615.831614
755.468011
884.765983
922.721028
860.802531
744.158030
604.174733
381.931663
249.805450
137.063861
100.028515
94.814897
106.722713
128.279924
144.222975
150.077939
145.029426
132.745504
104.544759
84.004998
54.315925
38.583875
21.673441
13.925433
10.012984
7.507801
7.626414
6.783605
6.646514
7.359982
6.474853
6.975532
6.421804
6.473660
6.774664
6.352663
7.035732
6.924868
6.615520
6.849766
7.115602
6.992817
6.260872
7.394552
8.010864
7.495880
7.346869
8.057952
8.508563
8.387566
9.434819
9.567738
11.069775
11.767745
12.438893
13.538599
16.232729
16.331673
18.519759
19.072890
19.663572
19.691586
20.017624
20.433664
20.370483
17.905831
17.642975
15.710592
16.041994
16.421676
15.835762
16.030669
15.974641
16.072989
16.161799
16.871691
16.410947
16.407967
16.411543
15.648603
16.636848
##ZVALUE=260
0.660419
0.746846
0.836849
1.049638
0.954866
0.824928
1.183748
0.898838
1.393557
1.125932
1.263618
2.223849
7.341504
33.911467
80.161691
197.842717
328.460932
543.291569
716.188550
932.406783
1013.391018
1015.889645
915.483832
761.816502
521.598458
366.739631
219.595432
143.212676
96.581578
88.918805
103.455782
131.522417
148.606896
157.920718
153.129697
136.866570
115.188956
82.165003
59.980750
38.629770
25.807619
14.313459
10.401607
7.414818
6.821752
6.884933
6.885529
6.596446
5.964637
6.695986
7.199645
6.472468
6.688833
6.459951
6.929636
6.712675
6.976724
6.421804
7.020831
6.998777
6.991625
6.754994
7.320642
7.485747
7.802844
8.325577
8.663535
9.316802
10.002851
11.053681
11.627674
13.900995
14.444590
14.459491
15.522838
15.728474
15.700459
16.292930
16.585588
15.372634
15.332699
14.298558
14.528632
14.635921
14.512539
14.871955
14.073849
14.769435
14.663935
14.372468
13.337731
13.909936
14.865994
14.133453
14.837980
15.320778
##ZVALUE=265
1.014471
0.866652
0.720620
0.884533
0.802875
0.889897
0.956655
1.036525
1.261830
1.293421
1.221895
1.445413
1.188517
1.542568
3.991723
21.927953
60.953498
162.274837
286.108851
525.816679
731.109977
914.304852
1015.943885
1015.943885
1015.943885
916.365981
697.799921
517.547727
296.342969
182.377696
114.103556
77.531934
84.474683
114.914775
136.862993
156.420469
160.195827
151.801705
135.813951
107.704997
85.782409
57.397485
39.657950
21.983981
14.873743
9.408593
7.572770
7.539988
7.037520
6.589890
6.794930
6.855726
7.112622
7.097721
7.262826
6.973743
6.739497
6.681681
5.815625
6.365776
6.303787
6.804466
7.620454
7.017851
7.193685
8.043647
8.380413
8.544922
8.906722
10.289550
10.891557
12.152791
12.557507
14.401674
14.064908
14.488697
13.274550
13.830662
13.782978
14.217496
14.383793
12.933612
13.410449
13.345480
13.358593
13.079643
13.266802
12.829900
13.055801
12.865663
13.591647
13.291836
13.281703
12.887716
13.938546
14.445782
##ZVALUE=270
0.839829
0.537634
0.945926
0.880957
0.829697
0.702739
0.799894
0.921488
0.907779
0.869632
0.988841
1.031756
1.173615
1.430511
1.391768
1.594424
2.191663
10.235906
33.080578
118.706822
239.995718
412.516594
712.946653
951.213837
1015.943885
1015.943885
1015.943885
1015.943885
905.482769
685.155988
479.670763
254.755616
145.556927
73.997974
66.479445
89.145899
110.974908
139.848590
153.795481
161.472559
154.116750
133.633614
114.131570
83.003640
61.489940
36.933422
24.373531
14.462471
10.317564
7.426739
6.909966
7.613897
6.840825
6.468892
6.310940
6.749630
6.722808
6.294847
7.131696
7.173419
6.685853
6.993413
7.166862
7.379651
7.078648
7.047653
7.787943
8.794665
8.921623
9.574890
10.066628
11.394620
11.700988
12.074709
12.768507
13.818741
13.127923
13.040900
12.729764
12.416840
12.203455
11.989474
11.878610
12.054443
12.028813
12.155771
11.805892
12.689829
12.445450
12.007952
12.898445
11.901855
12.163520
12.162924
12.105703
12.779832
##ZVALUE=275
0.482798
0.749826
0.640750
0.507832
0.755787
0.783801
0.771880
0.698566
0.803471
0.812411
0.983477
1.085997
1.055598
1.261830
1.285672
1.305938
1.211762
1.662970
1.659989
4.600883
18.098950
61.661601
198.363662
369.060636
675.089955
903.922915
1015.943885
1015.943885
1015.943885
1015.943885
1015.943885
879.500508
635.406971
350.776911
205.210447
92.100501
61.888695
63.575506
82.726479
111.711621
130.353570
151.536465
159.112811
149.378777
135.278702
106.571913
85.628629
57.477951
41.155815
24.004579
15.930533
9.861588
7.757545
6.843805
6.691813
6.869435
6.772876
6.709695
7.033944
7.124543
7.272959
7.558465
7.365942
7.385612
7.438660
7.889867
7.265806
8.385777
8.979440
9.573698
9.649992
11.138916
11.211634
12.401938
13.313890
12.866855
13.014674
13.433695
12.624860
12.806654
12.082458
11.915565
11.629462
11.853576
11.418462
11.354685
11.216998
11.214614
11.669993
11.890531
12.287498
11.360645
11.462569
12.099743
11.575818
12.234449
##ZVALUE=280
0.810623
0.657439
0.604987
0.794530
0.702739
0.731945
0.748634
0.750422
0.679493
0.858903
0.889897
0.957847
1.117587
1.122952
1.239777
1.262426
1.088977
1.295805
1.320839
1.484752
1.693964
2.505779
12.144446
48.054457
165.015459
303.149819
552.591681
793.227553
1016.064882
1016.064882
1016.064882
1016.064882
1016.064882
985.628963
757.668614
453.566909
279.643536
130.140781
67.970753
45.971870
56.900978
84.547997
106.129646
132.252574
146.835446
151.879787
147.462487
128.148794
109.703541
81.203580
59.545636
38.446784
26.517510
14.561415
10.222793
8.016825
7.345676
7.264614
6.902814
7.350445
7.207990
7.018447
7.374883
8.090734
7.927418
8.210540
7.915497
8.837581
9.076595
9.990931
10.423660
11.370778
11.726618
12.299418
12.621880
12.820959
12.505651
12.282729
11.850595
12.576580
11.365414
11.673570
11.088848
10.823607
10.893941
10.728836
11.510849
11.300445
11.306405
10.804534
11.043549
11.071563
11.452436
11.466742
11.133552
11.508465
##ZVALUE=285
0.458956
0.531673
0.573993
0.625849
0.433922
0.604987
0.697970
0.539422
0.628829
0.591874
0.686646
0.719428
0.631809
0.906587
0.720620
0.998974
0.866652
1.051426
0.937581
1.020432
1.143813
1.418591
1.504421
1.777411
6.115437
24.037957
87.989569
181.542635
379.340649
591.968894
824.366808
1015.949845
1015.949845
1015.949845
1015.949845
1015.949845
897.552967
582.646728
378.673673
192.128420
103.363991
45.619607
38.015842
54.324865
75.327754
103.749633
122.072697
142.196417
149.621964
142.430663
132.166743
106.409788
86.708665
57.898760
41.269660
24.434924
15.723705
10.454655
8.538961
7.096529
6.884933
7.140636
7.186532
7.485747
7.699728
7.382631
7.859468
8.195639
8.735657
9.299517
9.457469
10.230541
10.429621
11.306405
11.237860
11.589527
11.256933
11.673570
11.080503
11.112690
10.813475
11.126995
10.216832
10.151863
10.787845
10.752678
10.672808
10.177493
10.896921
10.994673
10.211468
10.574460
9.978414
10.447502
10.046959
10.486841
##ZVALUE=290
0.517964
0.522733
0.702739
0.532866
0.583529
0.688434
0.535846
0.717640
0.807643
0.644922
0.777841
0.731945
0.715852
0.673532
0.804663
0.736713
0.879765
0.765920
0.879765
1.058578
1.154542
1.293421
1.343489
1.335740
1.736879
1.744628
2.360940
8.722544
45.206547
105.696917
247.047544
410.151482
707.268715
969.750881
1016.036868
1016.036868
1016.036868
1016.036868
964.870453
728.622675
432.725549
260.538459
110.458732
52.884817
28.154850
32.878518
51.128864
69.044828
95.768571
117.529631
137.480497
144.015551
139.056444
127.029419
104.794502
84.802508
56.889653
40.546656
25.600791
16.995668
10.601878
8.723736
7.985830
7.389784
7.342696
7.555485
7.551908
8.008480
8.719563
9.241700
9.369850
10.435581
10.754466
11.010766
11.310577
11.523962
11.104941
11.178851
10.604858
11.155605
10.606647
10.395646
10.945797
10.757446
10.911822
10.551810
10.706782
10.255575
10.266900
10.503531
10.091662
10.267496
10.511875
10.140538
9.960532
10.037422
##ZVALUE=295
0.516772
0.355840
0.558496
0.438690
0.582933
0.369549
0.454783
0.645518
0.674725
0.535846
0.582933
0.557899
0.568628
0.649691
0.642538
0.594854
0.617504
0.628829
0.779629
0.738502
0.876784
0.944734
1.030564
1.171827
1.326799
1.363754
1.444817
1.666546
2.078414
3.852844
21.286607
62.650442
144.100785
343.580842
553.588867
888.354778
1015.943885
1015.943885
1015.943885
1015.943885
1015.943885
975.402594
695.809722
377.288461
208.377838
75.963736
34.223795
23.342967
29.939413
47.143698
65.315962
90.514421
110.277534
129.301548
135.427713
133.014917
121.731758
99.216700
79.585910
56.257844
40.482879
24.627447
17.282963
11.879802
9.816885
8.490682
8.446574
8.093715
8.554459
8.987784
9.597540
10.620952
10.646582
11.290908
10.972619
10.911822
11.100769
11.122823
10.636449
10.667443
10.177493
10.812879
10.532737
10.766983
10.454655
10.609627
10.720491
10.202527
10.403991
10.737777
9.982586
10.149479
9.819865
10.144711
10.235906
10.191798
##ZVALUE=300
0.507832
0.442863
0.470877
0.451803
0.491738
0.685453
0.518560
0.449419
0.534654
0.444651
0.624657
0.545979
0.680685
0.563860
0.576973
0.790954
0.495911
0.714660
0.794530
0.625849
0.872612
0.822544
0.954866
0.867844
1.030564
1.017451
1.172423
1.299977
1.541972
1.600981
1.827478
2.101660
6.684661
40.841699
104.711652
266.411901
458.520651
798.286796
1015.943885
1015.943885
1015.943885
1015.943885
1015.943885
1015.943885
918.311477
562.886596
356.621742
160.378814
73.091984
23.537874
18.739700
28.395653
40.531754
61.652660
80.624819
106.290579
120.490789
129.486918
128.636956
115.334988
101.646781
77.834725
59.691668
38.994551
28.188825
16.527772
12.492537
10.622740
9.189844
9.519458
9.661913
10.190606
10.793805
11.501908
11.265874
11.295676
11.776686
10.981560
10.991693
10.836720
10.478497
10.821819
10.747910
10.744929
10.985732
10.595918
10.420680
10.304451
10.400414
10.573864
10.071993
10.417700
10.490417
10.090470
9.931922
9.723902
##ZVALUE=305
0.264645
0.299811
0.395775
0.362992
0.623465
0.320673
0.340939
0.302792
0.462532
0.564456
0.388622
0.587702
0.653863
0.460744
0.627637
0.518560
0.648499
0.565648
0.590682
0.835657
0.664592
0.778437
0.574589
0.816584
0.904799
0.939965
0.792742
1.018643
1.169443
1.224875
1.368523
1.563430
1.658797
1.956820
3.958941
25.409460
74.231625
210.809708
388.993621
725.716949
998.832583
1015.948653
1015.948653
1015.948653
1015.948653
1015.948653
1009.224653
697.937012
458.154678
223.038793
111.498833
34.947991
16.445518
18.658638
25.744438
41.815639
57.697892
79.795718
98.240972
116.381645
122.211576
120.456815
112.759471
94.976425
77.844858
56.357980
40.132999
25.278926
18.147826
13.570786
11.717677
10.914803
10.785460
11.326671
11.231899
11.418462
11.303425
11.208653
10.566711
10.536909
10.663867
10.894537
10.982752
10.808706
11.028647
10.838509
11.037588
10.770559
10.893941
10.645986
10.470748
10.189414
10.374784
10.362864
10.419488
10.180473
##ZVALUE=310
0.473857
0.400543
0.373721
0.479817
0.471473
0.415444
0.305772
0.471473
0.427961
0.583529
0.572801
0.516772
0.558496
0.502467
0.461936
0.346899
0.418425
0.530481
0.704527
0.527501
0.425577
0.503659
0.792742
0.756979
0.742674
0.961423
0.792742
0.932813
0.925660
0.952482
0.997782
1.244545
1.407862
1.309514
1.717806
1.887679
2.290606
10.591745
39.239526
136.931539
268.622637
553.192496
830.789804
1015.943885
1015.943885
1015.943885
1015.943885
1015.943885
1015.943885
973.164439
689.010620
367.934704
200.937986
67.561865
23.806691
13.344884
16.163588
24.076700
33.708811
52.889585
69.285631
91.564655
105.524659
114.683509
116.532445
107.835531
94.513893
75.760484
58.070421
39.339662
28.269887
19.681454
15.801787
12.721419
11.704564
11.246800
11.266470
11.134744
10.845661
10.566711
10.850430
10.835528
10.662675
10.772943
11.296868
11.217594
11.130571
11.074543
10.583997
11.156797
10.564923
10.657907
10.193586
10.186434
10.459423
10.295510
##ZVALUE=315
0.364780
0.275970
0.130534
-0.063777
0.137687
0.320673
0.286698
0.210404
0.068545
0.293851
0.444651
0.317693
0.340939
0.390410
0.406504
0.388622
0.417829
0.264645
0.301600
0.468493
0.314713
0.467896
0.286698
0.426769
0.535846
0.499487
0.664592
0.677705
0.730753
0.654459
0.819564
0.754595
0.830889
1.089573
1.201630
1.409650
1.515746
1.465678
1.889467
4.661679
20.980835
98.785758
221.064687
488.317609
777.446032
1015.775800
1015.775800
1015.775800
1015.775800
1015.775800
1015.775800
1015.775800
876.169801
487.024784
267.197490
93.312860
33.768415
12.245774
11.776686
15.558600
21.103621
33.917427
47.186613
66.524744
82.990527
101.583600
109.374523
110.027790
104.086995
87.685585
74.058771
55.950880
42.345524
27.228594
20.270944
14.770627
12.714863
11.570454
10.907650
10.895729
10.865927
10.763407
10.318756
11.022687
10.596514
10.953546
11.048913
11.017919
10.878444
10.869503
10.876656
10.778904
10.365844
10.517836
10.132790
10.057688
##ZVALUE=320
0.417829
0.374913
0.381470
0.349879
0.384450
0.423789
0.393987
0.462532
0.523925
0.348687
0.499487
0.399947
0.443459
0.542998
0.600815
0.635982
0.505447
0.441670
0.436902
0.522733
0.619888
0.565648
0.493526
0.512600
0.630617
0.741482
0.493526
0.761747
0.887513
0.831485
0.886917
0.955462
1.004934
1.040697
1.240969
1.107454
1.327991
1.545548
1.360774
1.690984
1.817942
2.638698
9.456873
63.701868
154.581666
383.922458
632.259846
988.949537
1015.944481
1015.944481
1015.944481
1015.944481
1015.944481
1015.944481
1015.944481
657.958984
370.716453
138.703585
54.150820
15.335679
10.627508
11.426806
13.792515
20.273924
28.870702
45.197606
60.249567
79.669952
94.012618
104.770660
106.512904
99.639893
89.094639
70.509911
54.996610
37.630796
28.293729
19.307733
15.562773
12.410879
11.524558
10.973811
10.989904
11.028647
10.737777
10.811687
10.978580
11.096597
11.220574
10.835528
10.715723
10.357499
10.616779
10.249615
10.499954
10.440946
##ZVALUE=325
0.270605
0.003576
0.312924
0.340939
0.260472
0.311732
0.475645
0.223517
0.293851
0.476837
0.397563
0.278950
0.439882
0.180602
0.254512
0.424981
0.418425
0.405908
0.592470
0.370741
0.521541
0.508428
0.416636
0.592470
0.516772
0.586510
0.433922
0.484586
0.723600
0.675917
0.647902
0.681877
0.928640
0.820756
0.820756
0.982881
1.119971
1.057982
1.214743
1.468658
1.858473
1.677871
1.994967
2.532601
5.389452
39.908886
107.910633
291.905403
523.832440
958.376527
1015.849710
1015.849710
1015.849710
1015.849710
1015.849710
1015.849710
1015.849710
844.673514
510.582924
205.160975
85.049868
22.870898
11.636615
9.817481
10.696650
14.526844
19.295812
29.891729
41.453838
61.403513
75.310469
90.450644
99.189878
100.320578
92.862844
78.936815
66.438913
48.956871
37.291646
24.943948
18.711686
14.241934
12.351871
11.572838
10.937452
10.990500
10.711551
11.165738
10.773540
10.696650
10.507703
10.265708
10.319948
10.396838
10.036826
10.301471
##ZVALUE=330
0.396967
0.332594
0.350475
0.265837
0.307560
0.127554
0.234842
0.414848
0.361800
0.354648
0.312924
0.270605
0.420809
0.431538
0.455976
0.512600
0.484586
0.540614
0.382662
0.423789
0.342727
0.528693
0.440478
0.318885
0.500679
0.393987
0.528693
0.421405
0.687838
0.721812
0.611544
0.732541
0.751615
0.730753
0.835657
0.831485
0.916719
0.915527
0.923872
1.093745
1.160502
1.399517
1.340508
1.630783
1.742840
2.177954
3.276467
18.556714
64.949989
216.258764
408.666730
780.887604
1015.943885
1015.943885
1015.943885
1015.943885
1015.943885
1015.943885
1015.943885
940.417647
598.811507
260.009766
117.087960
35.352707
15.006661
9.650588
9.585619
11.269450
13.367534
20.528436
28.432608
42.056441
56.048632
73.288679
84.590912
92.961788
93.276501
86.572766
76.987743
60.672760
47.611594
33.326745
25.455952
18.613935
14.866590
12.371540
11.388659
11.103749
10.809898
10.502934
10.271668
10.279417
10.207891
10.032654
10.001659
10.027885
##ZVALUE=335
0.301600
0.291467
0.338554
0.262856
0.395775
0.366569
0.390410
0.436902
0.284910
0.351667
0.399947
0.383854
0.350475
0.343919
0.297427
0.458956
0.399947
0.485778
0.327826
0.412464
0.410676
0.554919
0.524521
0.642538
0.604987
0.565648
0.483990
0.650883
0.607967
0.671744
0.683665
0.593662
0.649691
0.782609
0.701547
0.723600
0.723600
0.890493
0.899434
0.949502
0.963807
1.101494
1.095533
1.424551
1.329780
1.658797
1.854897
2.129674
2.329946
5.724430
38.417578
110.179782
323.408842
583.877563
1002.249718
1015.943885
1015.943885
1015.943885
1015.943885
1015.943885
1015.943885
1015.943885
730.021596
422.790647
160.067677
65.429807
19.667745
10.914803
9.678602
9.679794
11.009574
13.628602
19.214749
26.210546
39.511919
52.236915
67.997575
78.460574
87.286830
87.454915
80.377460
73.119998
58.968663
47.971606
34.300685
25.991797
18.552542
15.202761
11.808872
10.902882
10.140538
9.797812
9.958744
9.706616
9.637475
9.884834
##ZVALUE=340
0.252724
0.288486
0.218749
0.180602
0.255704
0.324845
0.351667
0.323653
0.278950
0.190735
0.135899
0.265837
0.231862
0.167489
0.278950
0.467896
0.222921
0.372529
0.373721
0.314713
0.187755
0.422597
0.418425
0.426769
0.472665
0.459552
0.439882
0.548959
0.465512
0.330806
0.421405
0.428557
0.441670
0.614524
0.563860
0.612736
0.673532
0.584722
0.693798
0.709891
0.934601
0.913739
1.015663
1.092553
0.864863
1.285672
1.073480
1.293421
1.752973
1.691580
1.845956
2.883673
18.060803
57.981014
183.000565
356.620550
722.873807
999.131799
1015.920639
1015.920639
1015.920639
1015.920639
1015.920639
1015.920639
741.949677
448.184013
194.365978
90.119839
26.358962
12.259483
9.409785
9.361506
9.662509
10.535717
13.846755
17.467737
26.205778
36.006570
51.493645
63.225627
76.195002
81.673861
81.785917
77.706575
67.790747
57.555437
43.887496
34.644604
23.590922
18.525720
13.834834
11.581779
10.295510
9.637475
9.445548
9.531975
##ZVALUE=345
0.316501
0.297427
0.286698
0.300407
0.373721
0.176430
0.381470
0.199676
0.239611
0.293851
0.263453
0.432730
0.412464
0.348687
0.375509
0.358820
0.379682
0.198483
0.318885
0.336766
0.446439
0.363588
0.321865
0.489950
0.338554
0.343919
0.431538
0.365973
0.415444
0.491738
0.625849
0.448823
0.538826
0.496507
0.533462
0.436902
0.605583
0.626445
0.833869
0.696778
0.770688
0.730753
0.812411
0.805855
0.881553
1.086593
1.118779
1.063943
1.222491
1.435876
1.544952
1.528859
1.869798
2.293587
5.311966
36.835670
109.273791
300.533772
524.175763
928.834677
1015.951633
1015.951633
1015.951633
1015.951633
1015.951633
1015.951633
911.214948
519.228578
290.950537
116.154552
53.255558
16.405582
10.643601
9.542704
9.340644
9.396672
9.913445
12.385845
16.103983
24.607778
33.486485
47.557950
57.816505
68.193674
73.757768
76.162815
73.351860
65.426826
56.702495
43.521523
34.225583
23.380518
18.369555
13.380647
11.254549
9.652972
##ZVALUE=350
0.287890
0.321865
0.207424
0.349879
0.319481
0.177622
0.202656
0.281930
0.239611
0.249743
0.298619
0.256896
0.525713
0.287890
0.421405
0.350475
0.248551
0.443459
0.333786
0.140667
0.305772
0.502467
0.405908
0.362992
0.391603
0.450611
0.478625
0.441670
0.418425
0.390410
0.508428
0.397563
0.545979
0.553727
0.516772
0.468493
0.775456
0.500679
0.620484
0.703931
0.812411
0.714660
0.739694
0.807643
0.751615
0.830889
0.899434
0.984669
1.142621
1.248717
1.176596
1.393557
1.484752
1.653433
1.784563
2.302527
3.088713
17.652512
60.866475
196.658969
378.173590
750.483871
1015.941501
1015.941501
1015.941501
1015.941501
1015.941501
1015.941501
1015.941501
624.547005
373.855829
168.686509
78.147650
23.457408
11.354685
8.792877
8.459687
8.015633
8.354783
9.275675
11.243820
16.160607
20.861626
29.988885
38.911700
51.175952
59.489608
66.971779
69.706440
67.115426
61.660409
51.135421
42.045712
31.262636
24.185777
16.827583
##ZVALUE=355
0.238419
0.311732
0.211596
0.228882
0.335574
0.208616
0.408888
0.185966
0.345707
0.329614
0.318885
0.404716
0.445843
0.378489
0.430942
0.362992
0.148416
0.436902
0.302792
0.411868
0.385642
0.239611
0.338554
0.440478
0.361800
0.509620
0.358820
0.363588
0.321865
0.596642
0.540614
0.573993
0.598431
0.258684
0.440478
0.599623
0.481606
0.475645
0.687838
0.816584
0.510812
0.753999
0.454783
0.673532
0.700951
0.795722
0.724792
0.764728
0.791550
0.891685
1.068711
1.061559
1.296997
1.304746
1.241565
1.551509
1.837611
1.896620
2.343655
7.662773
33.209920
125.828981
258.477926
518.757701
803.481936
1015.943885
1015.943885
1015.943885
1015.943885
1015.943885
1015.943885
834.957957
524.102449
227.185488
109.815598
33.750534
13.989806
8.473992
8.288622
7.861853
7.812977
8.031726
8.827448
10.456443
13.366938
19.387603
25.748610
34.840703
43.441653
53.961873
59.488416
62.850714
61.956644
56.407452
49.692988
39.638877
##ZVALUE=360
0.189543
0.271797
0.284910
0.314713
0.219941
0.323653
0.292659
0.384450
0.304580
0.452995
0.400543
0.490546
0.411868
0.294447
0.469685
0.403523
0.312924
0.294447
0.389814
0.458956
0.551939
0.493526
0.401735
0.483990
0.341535
0.544786
0.472665
0.516772
0.449419
0.530481
0.423789
0.386834
0.455976
0.580549
0.436902
0.575781
0.508428
0.402927
0.616908
0.602603
0.589490
0.776649
0.786781
0.723600
0.638962
0.752807
0.794530
0.746846
0.826716
0.891685
0.911951
0.970960
1.098514
1.162887
1.215935
1.310706
1.335740
1.403689
1.765490
1.954436
2.134442
3.197789
18.454790
60.842633
192.732811
366.779566
683.620572
973.021984
1015.944481
1015.944481
1015.944481
1015.944481
1015.944481
1010.989547
616.565943
357.489586
147.534013
62.969923
17.734766
8.975863
7.879734
7.887483
7.346869
7.077456
7.329583
7.578731
8.901954
10.953546
15.730858
20.719767
29.367805
37.545562
47.054887
53.225756
57.076812
57.228804
##ZVALUE=365
0.239611
0.236630
0.272989
0.221729
0.279546
0.284910
0.270605
0.382662
0.265837
0.192523
0.180602
0.437498
0.241995
0.320673
0.245571
0.368953
0.331998
0.350475
0.356436
0.412464
0.373721
0.647902
0.463724
0.401735
0.325441
0.319481
0.374913
0.506639
0.411868
0.372529
0.305772
0.497699
0.525713
0.424981
0.593662
0.502467
0.363588
0.584722
0.627637
0.683665
0.702739
0.862479
0.599623
0.866652
0.776649
0.643730
0.777841
0.794530
0.967979
0.813603
0.699759
1.081824
0.883937
1.123548
1.158714
1.063943
1.219511
1.378655
1.406670
1.601577
1.694560
2.100468
2.203584
2.720952
5.692840
39.016008
112.943649
302.422643
531.042814
921.986699
1015.943885
1015.943885
1015.943885
1015.943885
1015.943885
1015.943885
834.328532
449.547768
237.189531
85.303783
33.899546
10.613799
7.627606
7.333755
7.092953
6.901622
6.782413
6.749630
7.117987
7.720590
9.405613
13.126731
17.449856
25.022626
31.741858
40.383935
##ZVALUE=370
0.389814
0.473857
0.334978
0.328422
0.402927
0.517964
0.379682
0.330806
0.342727
0.343919
0.267625
0.388622
0.247955
0.151992
0.287890
0.295639
0.273585
0.360608
0.336766
0.222921
0.439882
0.401735
0.408888
0.239611
0.308752
0.378489
0.344515
0.455976
0.292659
0.497699
0.364780
0.476837
0.459552
0.432730
0.469685
0.501871
0.471473
0.457764
0.379682
0.621676
0.561476
0.550747
0.544786
0.569820
0.533462
0.490546
0.577569
0.567436
0.690818
0.671744
0.731945
0.734925
0.796914
0.926852
0.864863
0.811815
0.898838
1.021624
1.096725
1.198649
1.230836
1.387596
1.460910
1.869798
1.950860
2.240539
3.130436
19.608736
69.935918
223.260522
403.440595
738.434792
1008.673906
1015.944481
1015.944481
1015.944481
1015.944481
1015.944481
955.091715
530.003905
291.612744
111.138821
50.155520
15.879869
7.901788
6.798506
6.481409
6.146431
5.975962
5.884767
5.671978
6.070733
6.793737
8.614659
11.174679
15.820861
##ZVALUE=375
0.320673
0.223517
0.139475
0.408888
0.178814
0.245571
0.148416
0.201464
0.238419
0.162721
0.248551
0.224710
0.465512
0.392795
0.355840
0.210404
0.375509
0.274777
0.254512
0.291467
0.280738
0.236630
0.405908
0.386834
0.409484
0.461936
0.424981
0.344515
0.424981
0.299811
0.478625
0.427961
0.321865
0.413656
0.411868
0.506639
0.500679
0.400543
0.467896
0.211596
0.554919
0.488758
0.478625
0.596642
0.519753
0.505447
0.462532
0.688434
0.513792
0.516772
0.660419
0.578761
0.688434
0.650883
0.591874
0.749826
0.683665
0.925660
0.862479
0.918508
0.897646
0.843406
1.074672
1.252890
1.492500
1.622438
1.638532
2.125502
2.487898
10.542870
41.203499
153.349638
316.949487
662.022829
972.909927
1015.943885
1015.943885
1015.943885
1015.943885
1015.943885
1015.943885
664.201975
413.514972
201.992989
99.242926
30.168891
10.894537
6.369948
5.999804
5.753636
5.584955
5.253553
5.583763
5.221963
5.505681
6.036758
##ZVALUE=380
0.129938
0.081658
0.101924
0.160933
0.327826
0.104904
0.244975
0.173450
0.204444
0.322461
0.299811
0.334978
0.401735
0.186563
0.071526
0.327826
0.266433
0.196695
0.185966
0.187755
0.241995
0.205636
0.254512
0.374913
0.228882
0.306964
0.339746
0.279546
0.264645
0.468493
0.240803
0.197887
0.384450
0.312924
0.506639
0.268817
0.368953
0.430942
0.369549
0.261664
0.378489
0.375509
0.422597
0.583529
0.436902
0.433922
0.358820
0.536442
0.573993
0.468493
0.557899
0.651479
0.457764
0.461936
0.588894
0.499487
0.629425
0.687838
0.913739
0.823736
0.811815
0.920892
0.965595
0.938773
1.181960
1.276731
1.376867
1.653433
1.737475
1.941919
2.364516
5.176663
22.677779
111.747980
240.985751
505.499840
787.774920
1015.944481
1015.944481
1015.944481
1015.944481
1015.944481
1015.944481
900.861621
607.151389
295.392871
150.627494
51.594973
18.758774
6.869435
5.661845
5.405545
5.384684
5.141497
4.938841
4.946589
##ZVALUE=385
0.254512
0.258684
0.157952
0.144839
0.256896
0.179410
0.225902
0.278950
0.168681
0.235438
0.304580
0.267625
0.129938
0.129938
0.063777
0.104904
0.287890
0.316501
0.217557
0.119805
0.204444
0.216961
0.250936
0.351667
0.192523
0.345707
0.182986
0.254512
0.285506
0.285506
0.307560
0.358820
0.221729
0.381470
0.429749
0.296831
0.217557
0.115633
0.303984
0.505447
0.334978
0.304580
0.263453
0.362992
0.445843
0.522733
0.399947
0.471473
0.335574
0.409484
0.484586
0.503659
0.545979
0.515580
0.681877
0.672936
0.728965
0.675917
0.517964
0.651479
0.890493
0.737906
0.759959
1.040697
0.908971
0.930429
1.144409
1.218915
1.588464
1.635551
1.878738
2.182722
2.324581
2.871752
9.670854
61.508417
155.893564
371.607542
632.574558
1015.944481
1015.944481
1015.944481
1015.944481
1015.944481
1015.944481
1015.944481
950.978994
532.720685
302.608609
120.057464
43.967962
9.899735
5.842447
5.178452
5.158782
4.995465
##ZVALUE=390
0.293851
0.306964
0.266433
0.096560
0.167489
0.102520
0.225902
0.178814
0.079870
0.268817
0.144839
0.067949
0.238419
0.170469
0.223517
0.263453
0.274777
0.378489
0.154972
0.275970
0.193715
0.302792
0.235438
0.336766
0.369549
0.231862
0.239611
0.195503
0.312924
0.154972
0.291467
0.327826
0.362992
0.335574
0.229478
0.255704
0.305772
0.262856
0.463724
0.461936
0.325441
0.270605
0.436902
0.535846
0.413656
0.291467
0.445843
0.451803
0.425577
0.382662
0.444651
0.551939
0.527501
0.498891
0.589490
0.514984
0.605583
0.702739
0.678897
0.564456
0.764728
0.654459
0.831485
0.886917
0.914931
0.907779
1.085997
1.206994
1.307726
1.700521
1.788735
1.957417
2.027750
2.061725
2.445579
2.610683
4.702806
31.933784
100.610852
311.012864
587.394834
1015.943885
1015.943885
1015.943885
1015.943885
1015.943885
1015.943885
1015.943885
1015.943885
810.634494
483.332872
203.445554
92.165470
22.695661
7.874966
5.421638
##ZVALUE=395
0.148416
0.116825
0.088811
0.091791
0.141859
0.222921
0.249743
0.229478
0.391603
0.162721
0.226498
0.305772
0.316501
0.258684
0.358820
0.179410
0.129938
0.182986
0.212789
0.243783
0.198483
0.151992
0.246763
0.409484
0.227690
0.273585
0.289679
0.264645
0.221729
0.353456
0.256896
0.328422
0.421405
0.369549
0.388622
0.466704
0.288486
0.270605
0.547767
0.394583
0.450611
0.448823
0.391603
0.563860
0.511408
0.366569
0.406504
0.426769
0.334978
0.453591
0.451803
0.341535
0.451803
0.548959
0.482798
0.542998
0.479817
0.627637
0.618696
0.826716
0.693798
0.660419
0.731945
0.726581
0.960827
0.958443
0.967979
1.121759
1.402497
1.203418
1.504421
1.523495
1.768470
1.676679
1.659989
1.901984
1.995564
2.253652
2.868772
16.278625
63.785911
216.251016
400.962830
739.393830
1015.943885
1015.943885
1015.943885
1015.943885
1015.943885
1015.943885
1015.943885
898.355842
584.454536
271.082520
130.475760
38.537979
##ZVALUE=400
0.200868
0.304580
0.282526
0.065565
0.286698
0.096560
0.222921
0.261664
0.083447
0.130534
0.113845
0.278950
0.096560
0.167489
0.068545
0.298619
0.291467
0.049472
0.380874
0.216961
0.325441
0.255704
0.211596
0.300407
0.435710
0.371933
0.432730
0.307560
0.446439
0.217557
0.305772
0.283718
0.358820
0.377893
0.364780
0.292659
0.152588
0.309944
0.261664
0.377893
0.430942
0.399947
0.176430
0.277758
0.193715
0.437498
0.372529
0.399947
0.461936
0.327826
0.494719
0.547767
0.441670
0.471473
0.477433
0.606775
0.472665
0.451803
0.599623
0.451803
0.575781
0.648499
0.676513
0.590682
0.778437
0.875592
0.923872
0.957847
1.188517
1.366735
1.271963
1.501441
1.467466
1.363754
1.456738
1.333952
1.395941
1.494884
1.628995
2.178550
2.428889
7.176995
31.440854
127.448440
266.202688
568.752885
883.951783
1015.943885
1015.943885
1015.943885
1015.943885
1015.943885
1015.943885
991.560817
694.496036
365.988612
##END
