##TITLE=QP00352
##FORMAT=SPECTACLE-ASCII V-1.2
##DATA TYPE=ULTRAVIOLET SPECTRUM
##SECOND TYPE=ULTRAVIOLET SPECTRUM
##DATE=01/21/18
##TIME=14:56:51
##SPECTROMETER/DATA SYSTEM=SPECTACLE
##XUNITS=NM EM
##YUNITS=ENERGY
##YFACTOR=1
##FIRSTX=220
##LASTX=410
##NPOINTS=96
##3DDATA=Equidistant
##ZUNITS=NM EX
##FIRSTZ=210
##LASTZ=400
##ZPOINTS=39
##XYDATA=(Y..Y)
##ZVALUE=210
1.926422
2.177954
2.189875
2.217889
2.274513
2.908707
2.295971
2.570748
2.597570
2.614856
3.118515
2.634525
3.072619
2.393723
2.721548
3.310442
3.429651
3.509521
3.747940
3.561974
4.453659
3.900528
3.741980
4.116893
4.864931
4.903674
5.399585
5.440712
6.330609
5.419850
5.364418
6.530881
5.527735
6.152987
6.299615
6.321669
6.323457
7.554889
6.165504
7.604957
6.733537
7.069707
6.695986
7.846951
6.911755
7.159710
7.001758
8.092523
8.012652
7.710457
7.456541
8.563995
8.326769
8.863807
8.647442
9.204745
9.224415
9.809732
8.051991
10.786653
10.454655
9.499788
8.982420
9.626746
10.464787
10.343790
11.216998
12.929440
13.773441
16.127825
19.516945
21.839738
26.312470
26.500821
32.103658
34.007430
35.234690
36.880970
37.571788
36.422610
31.026602
29.467940
25.612712
18.318892
15.487671
12.952685
11.038780
9.770989
10.178685
9.599924
8.763671
7.989407
9.122491
8.937716
9.475946
9.224415
##ZVALUE=215
6.094575
6.146431
5.713701
5.694628
4.661679
3.680587
4.214644
4.139543
4.759431
5.379915
4.270673
5.042553
3.840923
3.518462
3.973842
2.892613
2.838969
3.519654
3.306866
3.591776
4.386902
4.415512
4.231930
4.370809
4.572868
4.510880
5.544424
5.338788
4.421473
4.795790
5.661845
6.616712
5.784631
4.534721
5.749464
6.154776
5.669594
6.799698
6.495714
6.311536
6.584525
7.227659
7.021427
6.459951
7.925630
7.464886
7.350445
7.159710
6.956458
8.075833
7.852912
8.410811
7.313490
8.788705
8.369684
9.264946
9.551644
9.170771
8.450747
9.444952
9.328723
8.813739
8.862615
9.798408
10.079741
9.520650
10.396838
11.343956
13.070703
14.802814
16.269684
18.649697
22.336841
27.261972
29.915571
31.482577
29.388666
31.728745
30.054450
27.057528
24.899840
19.694567
18.334985
16.240478
13.826489
12.475848
11.109710
10.108948
9.380579
8.612871
8.734465
8.634925
8.956790
9.207726
8.029938
8.976460
##ZVALUE=220
19.406676
18.696785
21.761656
20.258427
20.532608
16.138554
14.550686
10.920763
10.068417
8.732677
10.168552
11.763573
10.223985
9.193420
9.488463
8.046627
4.753470
4.800558
4.587770
4.217625
4.171729
3.932714
4.517436
4.556775
4.454851
5.377531
5.125999
5.296469
5.494952
5.440712
5.549788
5.477667
5.283952
6.696582
5.342960
5.925894
6.039739
6.515980
6.665587
5.929470
7.062554
6.096959
6.922483
7.038713
7.089972
6.862879
7.813573
7.060766
7.133484
7.825494
7.865429
7.978678
7.962584
7.384419
8.622408
8.053780
8.148551
8.582473
8.328557
7.828474
8.924603
8.713603
8.539557
10.333657
8.529425
10.300875
10.886788
11.806488
11.809468
13.642907
15.175939
18.677711
21.196604
23.278594
24.643540
27.690530
25.462508
26.685596
25.260448
22.674799
22.543669
21.042824
18.816590
16.209483
14.735460
14.019608
13.498664
10.493994
10.144711
9.341836
8.970499
8.937716
8.922815
8.534789
9.689927
9.423494
##ZVALUE=225
34.703612
39.132833
58.073997
76.273680
84.328651
91.800690
86.511970
72.230697
48.108697
36.371946
24.714470
22.727847
22.108555
22.511482
26.898980
23.093820
21.666884
15.957952
13.340712
9.756684
5.937815
4.516840
4.607439
4.778504
4.510880
4.720688
5.301833
5.672574
5.712509
5.256534
5.887747
6.329417
6.602407
6.097555
6.613731
7.094741
7.053614
6.988645
6.997585
7.456541
7.646680
7.213950
7.415414
8.194447
7.430911
8.692741
8.410811
7.528663
7.862449
8.908510
8.337498
9.461641
9.113550
9.083748
9.298921
9.198785
9.505749
10.255575
9.582639
9.597540
10.375977
10.453463
10.095835
11.181831
11.060834
11.932850
11.633635
12.020469
14.972687
16.113520
18.165708
18.694997
22.661686
26.023984
26.981831
27.602911
26.725531
26.192665
23.128986
22.229552
21.262765
20.476580
18.527508
17.367601
16.278625
13.050437
12.840629
13.033748
12.198687
10.969639
11.975765
10.602474
11.047721
10.606647
10.333657
10.900497
##ZVALUE=230
30.937791
30.331612
53.679943
100.567937
132.965446
180.226564
191.942453
197.567940
182.191730
153.682828
104.685426
72.719455
46.959519
44.642687
45.669675
48.480630
50.439835
47.329664
45.886636
36.874413
27.693510
19.406676
12.853742
8.305907
5.878806
5.639791
5.693436
5.981922
6.085634
6.800890
7.064939
6.966591
6.116629
7.399917
6.962419
7.466674
7.840991
7.697940
7.963777
7.340908
8.528829
7.457733
8.129478
7.990599
8.107424
7.961988
8.871555
9.365678
8.363724
8.646846
8.413792
9.792447
9.136796
9.125471
10.559559
9.853840
10.815859
9.908676
10.077953
10.745525
9.911656
9.707808
10.805726
11.362433
11.985898
10.802746
12.612939
12.980700
14.712811
15.806556
17.813444
19.759536
22.127628
22.820830
24.287701
26.195645
25.215745
22.903681
24.710894
21.503568
21.468997
19.860864
18.506646
16.163588
15.055537
15.105605
15.653968
14.745593
12.337565
13.026595
11.908412
11.896491
12.450814
11.594892
13.329983
11.066794
##ZVALUE=235
9.616613
10.253787
26.206970
45.743585
93.992949
141.332746
216.431618
270.237923
323.046446
320.655704
290.354490
248.801708
201.695561
140.327811
103.734732
79.668760
70.956945
82.344413
89.088678
83.076954
80.212951
67.268610
55.037737
39.012432
22.946000
16.812682
11.464953
8.743405
7.364750
5.910993
7.112622
7.095933
6.975532
7.227659
7.303953
7.879734
7.821918
7.081628
8.149743
7.426739
7.399917
8.057952
8.029938
8.937716
7.947683
9.055734
8.958578
8.488894
9.643435
9.605885
8.700490
10.379553
9.277463
9.766817
10.150671
10.430813
10.468960
11.068583
10.798573
11.501908
11.041760
12.273788
12.523532
13.508797
13.696551
13.484955
14.279485
15.149713
15.789866
17.890930
20.121932
21.379590
24.352670
25.541782
29.076934
26.901960
27.999878
28.639436
27.592778
27.589798
24.479628
22.477508
22.619963
21.723509
21.324754
18.426776
18.094778
17.961860
16.551614
16.766787
16.647577
15.927553
15.976429
14.561415
14.917850
15.452504
##ZVALUE=240
1.991987
2.891421
5.729795
12.069941
35.817623
70.178509
146.319866
226.341486
355.390906
436.501503
543.937683
575.656891
567.021966
502.836704
422.352552
293.210745
214.952826
146.470666
112.930536
109.320879
116.248727
124.924779
117.358565
110.391974
86.845756
70.739985
48.802495
34.266710
22.156835
14.785528
10.669827
9.698868
9.346604
10.350943
10.132790
9.813905
9.596944
9.256601
9.276867
9.724498
8.723736
9.055734
8.928776
9.543896
9.830594
10.621548
11.311769
11.031628
9.975433
10.234714
10.736585
10.662675
12.960434
11.531711
12.688637
11.503696
12.514591
13.678670
13.459921
13.398528
14.282465
14.449954
14.976859
14.480948
14.611483
16.743541
15.386939
16.820431
17.768741
19.889474
22.377968
24.564862
28.392673
29.459000
31.515956
32.273531
33.444762
30.668974
30.962825
30.481815
29.012561
27.774572
24.681687
23.956895
23.253560
20.124912
22.328496
21.485686
22.821426
21.059513
20.587444
19.977689
20.453930
20.244718
20.747781
20.050406
##ZVALUE=245
1.901984
1.678467
1.949668
1.900792
3.913641
8.598566
31.697750
68.286657
154.254436
248.589516
390.952826
514.719486
604.267716
663.753748
652.931929
564.847589
460.001826
319.988728
225.560665
149.257779
117.617846
107.100606
122.971535
129.131675
136.555433
136.237741
116.910934
102.302432
74.538589
55.952668
36.313534
23.686886
17.039776
12.162924
10.015965
9.839535
9.080768
9.220839
8.683801
8.269548
8.690953
8.147955
8.777976
8.877516
8.835793
9.734631
9.156466
9.041429
9.283423
9.162426
9.336472
8.635521
10.643601
9.520650
10.433793
11.061430
9.400845
10.447502
10.627508
10.717511
10.967851
11.488795
12.054443
12.087822
13.763905
12.335777
13.312697
14.568567
14.212728
15.357733
17.400980
19.025803
19.928813
22.560954
24.377704
24.349689
25.272965
23.784637
22.767782
21.490455
22.118688
20.810962
19.945502
19.211769
19.784570
17.404556
18.487573
17.464757
16.733408
17.801523
17.762780
17.434955
17.873645
16.407967
16.476512
16.587973
##ZVALUE=250
1.817942
1.622438
1.532435
1.558661
1.933575
1.911521
2.285838
7.507801
20.868778
63.537955
128.651857
229.515433
396.868587
519.036651
661.196709
738.226771
745.882988
688.179731
546.578765
422.172546
263.512731
175.735950
110.773444
98.420978
110.331774
128.874779
139.368773
143.606663
140.626431
125.317574
107.291937
78.910589
59.712529
39.449930
24.499893
14.741421
9.722710
7.703900
6.389618
7.647872
7.395744
6.563663
6.978512
7.117987
6.401539
7.012486
6.636977
6.856918
6.419420
6.995797
6.625652
6.844997
6.740689
7.758737
7.359982
7.303953
7.380843
8.088946
7.956624
8.554459
7.982850
8.471608
8.558631
9.749532
9.425879
9.779930
10.417700
11.312962
12.110472
14.346838
15.083551
15.541911
17.001629
17.941594
18.039942
18.915534
18.702745
19.229650
19.387603
19.113421
18.778443
18.923879
17.193556
17.180443
16.404986
16.647577
16.400814
17.183423
15.724897
15.406609
15.797615
15.084743
15.473962
15.327930
15.840530
15.937686
##ZVALUE=255
1.484752
1.664758
1.624823
1.647472
1.675487
1.690984
1.630783
1.565814
1.900792
3.562570
18.228889
43.058991
94.336867
206.956863
331.093669
531.307459
675.199628
818.745494
866.630673
827.026963
725.727677
585.616827
367.242694
237.159729
131.400824
99.893808
92.220902
109.203458
130.149722
145.144463
152.338743
146.016479
135.211945
106.950998
85.444450
55.554509
39.442778
21.651983
14.161468
8.836985
7.893443
6.773472
6.813407
7.291436
6.285906
6.279945
6.292462
6.588697
6.345510
6.714463
6.181598
6.522536
6.972551
6.679893
6.911755
6.596446
6.930828
7.184744
7.616878
7.361770
7.690787
7.809997
8.538961
8.421540
9.004474
9.482503
9.201765
10.880828
10.127425
12.071729
12.148619
14.925599
15.101433
15.338659
16.543865
17.933846
17.356873
17.171502
16.013980
16.469955
15.464425
14.510751
15.494823
14.982820
16.645789
14.968514
15.756488
14.609694
15.635490
14.450550
15.213490
14.418960
14.892817
14.633536
15.355945
15.531778
##ZVALUE=260
1.263618
1.276731
1.418591
1.343489
1.546741
1.502633
1.710653
1.803637
1.659989
1.862645
1.783967
2.959967
8.218884
31.715631
70.757866
143.363476
314.588547
487.756729
738.886595
913.856030
1015.630960
1015.630960
907.886624
731.894970
491.851568
326.689482
211.614966
111.956596
85.020661
89.970827
106.310844
134.482980
149.927735
157.263875
154.744983
133.193731
113.970637
84.826946
62.704682
38.141608
24.377704
13.881922
9.188652
6.868839
6.332994
5.992651
6.312728
6.597638
6.472468
6.201863
6.413460
6.381869
7.001758
6.401539
6.361604
6.658435
6.792545
6.594658
6.605983
6.985664
7.647872
7.019639
7.049441
8.001924
8.089542
8.089542
8.111000
8.926988
9.763837
11.044741
11.868477
12.362599
12.939572
14.207959
15.538931
15.554428
15.120506
15.413761
15.475750
15.355945
15.547872
14.717579
13.975501
13.226867
13.382435
13.883710
13.908744
13.568997
14.666915
13.815761
14.275908
14.461875
13.189912
13.697743
14.258623
13.959408
##ZVALUE=265
1.436472
1.364946
1.254678
1.323819
1.112819
1.206994
1.348853
1.495481
1.606941
1.464486
1.576543
1.661777
1.811981
2.348423
5.008578
20.596981
50.468445
132.385492
241.417885
466.217399
669.557452
865.301490
1015.638709
1015.638709
1015.638709
927.144885
690.630674
497.566462
271.527767
163.216591
89.476705
74.213743
84.191561
114.239454
134.473443
158.101916
160.125494
152.710676
136.109591
109.113455
85.830688
57.767630
38.585663
21.500587
14.004707
8.461475
7.049441
6.215572
6.266832
6.403923
7.036924
6.207824
6.275773
6.098747
6.581545
6.466508
6.764531
6.724596
6.804466
6.873608
7.003546
7.153749
7.472634
7.416606
6.760955
7.111430
8.315444
9.130836
8.922815
9.740591
10.588765
11.159778
11.287928
12.682676
12.786984
13.387799
13.082623
13.797879
13.189912
13.089776
12.836456
12.829900
12.320876
12.441874
12.246966
12.284517
11.717677
13.024807
12.639761
12.156963
13.030767
12.833476
12.644529
13.231635
13.045669
12.754798
##ZVALUE=270
0.953674
1.029968
1.013875
1.265407
1.114607
1.275539
1.219511
1.358986
1.304746
1.254678
1.337528
1.745820
1.576543
1.708865
1.664758
1.829863
2.313852
9.266734
27.343631
90.701580
175.284743
308.286548
579.026937
807.653666
1015.565991
1015.565991
1015.565991
1015.565991
815.971494
616.086721
369.932652
224.033594
108.609796
69.748759
66.197515
85.291862
115.144849
136.441588
156.412721
160.649419
153.540969
139.534473
112.561584
88.882446
58.453679
40.826797
23.427606
16.234517
10.053515
7.856488
7.041693
7.002950
6.645918
6.693602
6.954670
6.854534
7.082820
7.260442
7.320642
7.373691
7.656813
7.204413
7.778406
7.141829
7.822514
8.111000
7.865429
8.179545
8.495450
9.155869
9.930730
11.229515
11.298656
11.658669
12.487769
12.480617
12.552738
12.470484
12.443662
11.508465
11.734962
11.931658
11.853576
10.536909
11.279583
11.819601
11.891723
11.554956
11.455417
11.301637
11.864901
11.048913
11.221766
11.426806
11.284947
12.422800
##ZVALUE=275
1.092553
1.154542
1.069903
1.140833
1.223683
1.242757
1.200438
1.400709
1.290441
1.355410
1.526475
1.419783
1.385808
1.563430
1.626611
1.629591
2.019405
2.013445
2.030730
4.681945
14.923811
59.965849
131.406784
302.439928
497.211814
785.499811
982.344747
1015.638709
1015.638709
1015.638709
986.449718
794.055462
507.918596
317.232609
147.370696
83.086491
53.978562
59.098601
85.607767
108.850002
130.996704
152.834654
158.713460
152.933002
139.096975
108.129978
85.593462
59.656501
41.813850
27.864575
15.936494
11.666417
8.954406
7.496476
7.333755
7.484555
7.453561
7.791519
7.557869
7.671714
8.183718
8.330941
8.369684
8.255839
7.873774
8.451939
8.910894
8.680820
9.411573
9.169579
9.932518
10.576844
11.927485
11.485815
12.165904
12.039542
12.430549
12.135506
11.319518
11.464953
11.619925
11.447668
11.416674
11.499524
11.055470
10.292530
11.075735
10.806918
10.983944
10.973811
10.639429
11.304617
10.741949
10.690689
11.338592
11.119843
##ZVALUE=280
1.087785
1.290441
1.199841
1.018643
1.034737
1.182556
1.067519
1.145601
1.123548
1.317859
1.256466
1.072884
1.166463
1.395941
1.675487
1.622438
1.348853
1.638532
2.088547
2.118945
1.952648
3.033876
10.505915
34.820437
113.729835
215.674639
420.312881
631.982684
916.543603
1015.638709
1015.638709
1015.638709
1015.638709
873.433948
587.444901
388.780832
196.476579
107.454658
51.207542
43.088794
60.020685
80.038905
110.797882
131.178498
150.983930
157.128572
150.692463
134.544969
108.182430
85.429549
58.432817
41.626692
23.644567
16.735792
10.646582
9.167790
7.889867
7.774830
7.733703
7.944703
7.825494
8.132458
7.942915
8.243918
8.267760
7.486939
8.189678
8.635521
9.533763
9.799600
9.919405
10.641813
10.880828
11.086464
11.449456
11.365414
11.899471
11.375546
11.209846
10.735989
11.196733
10.663867
10.908842
10.040998
9.908676
10.191798
10.196567
10.436773
10.218620
10.342598
10.715723
10.164976
10.483861
10.396838
10.358691
9.804964
##ZVALUE=285
0.868440
1.084805
1.032948
0.991821
1.259446
1.013875
1.114607
1.038909
1.019835
1.132488
1.224875
1.189709
1.180768
1.124740
1.280904
1.146793
1.344681
1.367927
1.435876
1.464486
1.488924
1.694560
1.801848
2.337694
4.494786
24.184585
60.717463
160.820484
288.564563
533.119440
754.856467
1015.638709
1015.638709
1015.638709
1015.638709
989.246964
784.089565
479.478836
298.710465
140.044689
73.577762
36.520958
37.090778
54.950714
74.933767
104.369521
124.378800
144.020915
150.571465
146.774650
132.673979
110.336542
88.450909
60.849786
41.717887
24.875998
17.460585
10.899901
8.591413
7.806420
7.293820
7.647872
7.652640
7.274747
7.665753
8.323789
7.841587
8.602738
8.777976
9.586811
9.900928
10.458827
10.587573
11.283755
11.371970
11.210442
11.172891
10.327697
10.544658
10.633469
10.618567
10.300875
10.384917
9.932518
9.898543
10.331869
10.011792
10.293722
9.620786
9.778738
10.237694
10.060668
9.810925
10.188818
9.572506
9.242892
##ZVALUE=290
0.797510
0.921488
0.942945
0.981688
0.937581
0.952482
0.993609
1.131892
1.075864
1.153946
1.101494
1.075864
1.082420
1.231432
1.276731
1.220703
1.228452
1.388788
1.378655
1.517534
1.356602
1.442432
1.575947
1.588464
1.981854
2.126694
2.691746
7.446408
34.732819
86.641908
176.720619
388.628840
621.337891
969.750881
1015.638709
1015.638709
1015.638709
1015.638709
932.812691
618.301630
410.065651
198.991895
102.490783
40.924549
27.999878
36.621690
49.988627
73.881745
95.851421
123.172998
138.005614
146.505833
144.316554
127.977729
108.768940
81.159472
60.038567
39.052963
26.500821
16.294718
11.435747
8.443594
7.525682
7.403493
7.289648
7.738471
7.678866
7.988811
8.622408
8.957982
9.332895
9.961724
10.341406
10.715723
10.845661
10.702610
10.610819
10.731816
10.800958
10.180473
9.929538
10.043979
10.078549
10.010600
9.880662
10.037422
10.083914
9.597540
9.717941
9.509921
9.318590
9.593964
9.633899
9.544492
9.147525
9.833574
##ZVALUE=295
0.997782
1.026988
0.901818
0.990629
0.857711
0.967979
1.010895
0.994802
1.089573
1.209974
1.168847
0.863671
1.044869
1.063943
1.082420
1.126528
1.321435
1.198649
1.328588
1.216531
1.388788
1.410842
1.659989
1.554489
1.769662
1.725554
1.983643
2.023578
2.528429
3.497601
12.434721
51.485896
120.125413
302.283764
516.352654
865.101814
1015.633941
1015.633941
1015.633941
1015.633941
1015.633941
813.570619
561.471581
293.672681
157.152414
56.174994
28.913617
23.065805
30.125976
47.701597
65.444708
93.353987
111.033916
130.665898
138.115883
134.852529
123.845935
101.818442
83.190799
56.957603
41.249990
24.198890
17.062426
11.051893
8.815527
7.575750
7.298589
7.348657
7.820725
8.135438
8.576512
8.824468
9.357929
9.868741
9.975433
9.898543
10.423660
9.883642
9.817481
9.681582
9.549856
9.203553
9.931922
9.520650
9.303689
9.651780
9.405613
9.232759
9.291768
9.641647
9.287596
9.473562
8.814931
9.037852
8.777976
9.246469
##ZVALUE=300
0.899434
0.869632
0.946522
1.004934
0.922680
0.868440
0.913739
1.019835
0.881553
0.903606
0.912547
0.978708
0.968575
1.088977
1.129508
1.012683
1.107454
1.160502
0.980496
1.285672
1.230836
1.340508
1.375675
1.313686
1.294613
1.491904
1.570582
1.616478
1.897812
1.639724
2.155900
2.356768
5.479455
29.503703
74.954629
200.078487
358.219743
657.365918
915.082693
1015.638709
1015.638709
1015.638709
1015.638709
954.931974
693.732500
381.131768
224.599838
98.904967
45.351982
18.866658
18.012524
28.570890
40.066838
63.572526
81.751943
108.394623
121.565461
130.535960
129.364729
117.578506
102.495551
78.838468
59.753656
39.531589
27.274489
16.614795
11.924505
9.188652
8.057952
7.948875
8.866787
8.758903
8.996725
9.315610
9.183884
9.652972
9.706616
9.528995
9.929538
9.675622
9.739995
9.531975
9.284616
9.593964
9.938478
9.352565
9.501576
9.134412
9.335876
9.055734
9.422898
9.360909
9.426475
8.604527
8.857846
8.808970
##ZVALUE=305
0.755787
0.816584
0.877976
0.821948
0.800490
0.749826
1.012683
0.925660
1.005530
1.028776
0.902414
1.028776
1.013875
0.974536
1.041889
0.966787
1.021624
0.877976
1.088977
1.082420
1.022816
1.163483
1.303554
1.179576
1.302958
1.260638
1.319647
1.492500
1.398921
1.326799
1.797676
1.820922
1.947880
2.432466
3.994703
19.337535
54.343939
155.366659
287.511945
551.190972
798.884630
1015.629768
1015.629768
1015.629768
1015.629768
1015.629768
828.701854
520.682931
325.418711
148.697495
71.937442
24.862885
14.537573
18.374920
24.794936
40.939450
56.976676
80.928802
98.857880
117.343664
124.531984
121.433735
113.841891
95.516443
77.650547
54.277778
39.836764
25.622845
17.943978
12.489557
10.304451
9.391904
9.262562
8.965731
9.300709
9.295940
9.232759
9.301901
9.117723
9.214878
9.322762
9.494424
9.369850
9.543896
9.895563
9.748936
9.644628
9.312630
9.429455
9.270906
9.171963
8.934736
9.047985
9.179711
8.948445
9.020567
##ZVALUE=310
0.894666
0.873804
0.824928
0.908971
0.895858
0.793934
0.920892
0.836849
0.993609
0.784993
0.872612
1.007915
0.847578
0.877976
1.000762
0.967979
0.902414
0.953674
0.826716
0.960827
0.994802
1.051426
1.092553
1.074672
1.199841
1.225471
1.293421
1.352429
1.303554
1.419783
1.451969
1.636744
1.789927
1.817942
2.104640
2.054572
2.361536
9.083748
29.688478
99.974871
201.358795
436.746478
669.996738
991.751552
1015.638709
1015.638709
1015.638709
1015.638709
1004.112959
713.631511
484.736562
245.009661
129.981637
44.901967
19.105673
12.487769
15.403628
24.340749
33.914447
52.759647
69.682598
92.587471
106.129646
117.364526
117.861629
109.345913
96.562505
74.173808
57.555437
38.558841
28.169751
18.680692
14.154911
10.925531
9.870529
9.442568
9.349585
9.124875
9.262562
9.319782
9.342432
9.457469
9.455681
9.627938
9.611845
9.673834
9.620786
9.790659
9.181499
9.387732
9.547472
9.190440
9.236932
9.034872
8.914471
9.112954
##ZVALUE=315
0.803471
0.718832
0.731945
0.692606
0.886917
0.673532
0.691414
1.003742
0.857711
0.939965
0.855923
1.049638
0.945926
1.049638
0.957847
0.817776
1.048446
1.122952
0.951886
0.909567
0.967979
0.951886
1.086593
1.250505
1.204610
1.200438
1.222491
1.188517
1.220703
1.179576
1.369715
1.303554
1.277924
1.545548
1.512766
1.591444
1.733899
2.073646
2.213717
4.235506
14.998913
62.098503
136.846900
318.419933
533.674955
889.873505
1015.638709
1015.638709
1015.638709
1015.638709
1015.638709
841.311812
594.706535
318.439603
170.285702
61.555505
26.335716
11.511445
11.205673
14.898777
21.157861
33.760667
47.097802
67.897439
83.440542
102.357864
109.806657
111.674666
106.505752
89.374781
73.880553
54.957867
41.394830
26.083589
19.118786
12.901425
10.768771
9.731650
9.606481
9.329915
9.125471
9.542704
9.314418
9.334683
9.454489
9.711981
9.470582
9.404421
9.797812
9.613633
9.224415
9.402633
9.121895
9.220839
8.943677
9.042621
##ZVALUE=320
0.945926
0.728965
0.932813
0.881553
0.618696
0.855923
0.838637
0.722408
1.092553
0.798702
0.897646
0.863671
0.722408
0.888705
0.811815
0.903606
0.939965
0.837445
0.958443
0.944734
0.925660
0.851750
1.032948
0.935793
1.059771
0.970960
1.075864
1.233816
1.221895
1.197457
1.060963
1.285672
1.140833
1.419783
1.447797
1.503825
1.633763
1.782775
1.766682
1.928806
2.078414
2.847910
7.025599
35.602450
90.628862
236.992836
405.793786
702.221990
971.024632
1015.638709
1015.638709
1015.638709
1015.638709
983.839631
730.130672
403.193831
232.367516
98.941922
44.124722
14.573932
10.092854
10.733604
13.165474
19.715428
28.440952
45.450926
60.828924
80.417991
93.163848
104.390979
106.058717
99.993944
88.168979
68.949461
54.003596
36.910772
26.511550
18.119812
13.740659
10.821819
9.865761
9.622574
9.687543
9.568930
9.089708
9.676814
9.207726
9.336472
9.416938
9.041429
9.515882
9.039640
9.143949
9.112954
9.031892
8.811951
##ZVALUE=325
0.876784
0.791550
0.659823
0.680685
0.816584
0.761747
0.802875
0.771880
0.851750
0.895858
0.870824
1.047850
0.974536
0.835657
1.100898
0.937581
0.810623
0.725985
0.913739
0.934601
0.896454
0.810623
0.829697
0.939965
0.990629
0.849962
1.271963
0.961423
1.060963
1.027584
1.165867
1.189709
1.023412
1.391768
1.245737
1.332760
1.370907
1.419783
1.466870
1.553893
1.509786
1.736879
2.031922
2.155900
4.159808
23.474693
63.043833
171.697736
307.214856
579.434633
813.540816
1015.638709
1015.638709
1015.638709
1015.638709
985.314846
752.871633
462.412834
291.842818
132.793784
63.706636
20.097494
10.404587
8.958578
9.971857
13.052821
18.253922
28.975606
41.313767
60.582757
75.727701
91.369748
98.737478
99.760890
93.097687
79.145432
65.859556
48.535466
36.423802
23.825765
17.288923
12.685657
11.084676
9.943843
9.807944
9.449720
9.526610
9.311438
9.252429
9.111762
9.179711
9.166598
9.082556
8.937716
8.772612
8.558631
##ZVALUE=330
0.721812
0.843406
0.772476
0.821948
0.713468
0.796914
0.870824
0.735521
0.821948
0.948906
0.700951
0.778437
1.142621
0.847578
0.857711
0.814795
0.807643
0.886917
0.964999
0.780821
0.888705
1.001954
0.889897
0.935793
0.931621
0.899434
0.891685
1.135468
1.138449
0.969768
1.127720
0.918508
0.977516
1.024604
1.196861
1.150966
1.195669
1.454949
1.270771
1.396537
1.467466
1.581907
1.671910
1.804829
1.937747
2.284646
2.460480
11.696815
39.616823
131.568909
253.828764
512.425900
758.334994
1015.638709
1015.638709
1015.638709
1015.638709
1015.638709
855.172873
560.161471
364.076495
173.239708
88.706613
32.289624
14.190674
8.813739
9.021759
9.809732
12.397766
19.206405
27.127862
41.095614
54.166913
73.140860
85.421801
93.859434
94.190836
87.344646
77.008605
60.440898
47.112703
32.131672
24.275780
17.413497
13.883710
10.789633
9.990931
9.478927
9.189844
9.110570
8.894801
8.832812
8.704662
8.691549
8.740425
8.750558
##ZVALUE=335
0.622869
0.802875
0.711679
0.772476
0.664592
0.696778
0.696778
0.803471
0.682473
0.855923
0.758767
0.824928
1.027584
0.892878
0.995994
0.943542
0.908971
0.796914
0.801682
0.999570
0.883937
0.707507
0.845790
0.764728
0.888705
0.851750
0.922680
1.074672
0.895858
1.104474
1.144409
1.025796
0.999570
1.009703
1.074672
1.181960
1.192689
1.226664
1.019835
1.168847
1.221895
1.361966
1.321435
1.522899
1.513958
1.622438
1.754761
2.192855
2.179742
5.018711
18.269420
75.357556
168.359876
385.154486
631.581545
983.259678
1015.635729
1015.635729
1015.635729
1015.635729
989.741683
678.347945
461.250544
244.172812
131.091475
48.991442
20.140409
9.426475
8.549690
9.215474
10.005832
12.864470
17.352700
27.864575
38.440824
54.825544
68.066716
80.208778
86.833835
87.892413
83.113909
71.186423
60.026646
44.895411
34.652948
24.037957
17.969608
13.084412
11.307597
9.429455
8.787513
8.751750
8.513927
8.515716
8.531809
8.741617
##ZVALUE=340
0.844598
0.672936
0.759959
0.605583
0.830889
0.754595
0.735521
0.715852
0.711679
0.710487
0.630617
0.842810
0.777841
0.906587
0.798702
0.818968
0.831485
0.707507
0.898838
0.774860
0.877976
0.982881
0.871420
0.823736
0.932813
0.851750
0.964999
0.795722
0.924468
0.996590
1.044869
0.947714
0.920892
0.926852
1.025796
1.000762
1.018643
1.091957
1.099706
1.158714
1.135468
1.123548
1.225471
1.298785
1.295805
1.359582
1.531839
1.599789
1.645684
1.791716
2.127886
2.752542
8.665919
43.350458
109.964609
283.890963
488.163829
826.987624
1015.638709
1015.638709
1015.638709
1015.638709
1015.638709
819.015503
560.501814
285.428762
156.224966
62.450767
25.192499
10.427833
8.815527
9.000897
9.029508
10.541677
12.968779
18.429756
25.001764
38.109422
49.540997
65.289736
74.615479
82.060695
81.769824
77.465773
70.048571
56.236982
45.817494
32.133460
24.825931
17.645955
13.218522
10.272861
9.315610
8.537769
8.516908
8.392930
##ZVALUE=345
0.741482
0.821948
0.715852
0.620484
0.783801
0.711679
0.744462
0.744462
0.749826
0.821948
0.740886
0.946522
0.782609
0.838637
0.761747
0.789762
0.730753
0.720620
0.951886
0.697970
0.666976
0.984669
0.772476
0.809431
0.643730
0.669956
0.797510
0.847578
0.940561
0.909567
0.911951
0.955462
0.951886
0.890493
1.015663
0.863671
0.935793
1.104474
0.912547
0.895858
0.979900
0.962615
1.049638
1.164675
1.227856
1.421571
1.434684
1.404881
1.415610
1.535416
1.638532
1.627803
1.808405
2.327561
4.033446
23.810863
67.021847
185.118914
338.871479
647.459030
919.783711
1015.638709
1015.638709
1015.638709
1015.638709
956.372619
705.336928
408.576727
226.714611
88.563561
39.604902
14.374852
9.700656
8.957982
8.652806
8.766651
9.473562
11.485815
15.407801
23.710728
33.281446
48.543811
57.788491
68.587661
74.344873
76.230764
73.222518
64.604878
56.269765
43.452978
34.106970
23.184419
17.246604
12.754798
10.219812
9.176731
##ZVALUE=350
0.670552
0.755787
0.646710
0.656843
0.743866
0.786781
0.704527
0.723600
0.712872
0.736713
0.790954
0.710487
0.780821
0.784993
0.740886
0.703931
0.765920
0.805855
0.702739
0.713468
0.956655
0.847578
0.779629
0.961423
0.943542
0.879765
0.770688
0.896454
0.847578
0.866652
0.797510
0.967979
1.018643
1.029968
0.958443
0.971556
0.972748
1.131892
0.961423
0.987649
1.108646
1.018643
1.032948
1.196861
1.176000
1.233816
1.058578
1.299977
1.382828
1.404881
1.473427
1.511574
1.869798
1.654625
1.903772
2.275705
3.086925
24.115443
49.051642
178.690553
255.850554
759.938955
779.376030
1015.638709
1015.638709
1015.638709
1015.638709
1015.638709
861.862898
504.583716
302.349925
60.352683
33.811927
10.923743
9.758472
8.661747
7.868409
7.781982
7.994771
8.674860
11.063814
14.449954
21.572709
29.514432
41.113496
50.406456
60.691833
66.667795
69.811940
67.931414
60.043931
52.330494
39.715767
32.385588
22.943616
17.464757
##ZVALUE=355
0.694990
0.778437
0.658631
0.940561
0.676513
0.743866
0.785589
0.625849
0.844598
0.817776
0.750422
0.791550
0.724792
0.919700
0.650883
0.696778
0.806451
1.054406
0.729561
0.946522
0.765920
0.751615
0.889897
0.899434
0.813603
0.844598
0.899434
0.900626
0.813603
0.882745
0.974536
1.114607
1.028776
1.019835
0.922680
1.020432
0.813603
0.861883
0.872612
0.785589
0.975728
1.077652
0.950694
0.975728
1.082420
1.095533
1.199841
1.255870
1.126528
1.225471
1.370907
1.469851
1.492500
1.581907
1.577735
1.796484
1.975894
2.065897
2.245903
4.859567
31.144619
84.385872
222.646594
397.807956
724.050999
977.392793
1015.638709
1015.638709
1015.638709
1015.638709
908.204913
656.961799
366.894603
200.031996
76.056719
32.242537
11.158586
8.139610
7.819533
7.360578
7.330775
7.607937
8.348823
9.674430
13.422966
17.344952
26.595592
33.949614
45.907497
54.079890
60.978532
64.028502
62.118769
57.028532
47.650933
40.382743
##ZVALUE=360
0.732541
0.695586
0.814795
0.712872
0.776649
0.914931
0.811815
0.697970
0.782609
0.777841
0.882745
0.783801
0.581741
0.919700
0.745654
0.814795
0.805855
0.796914
0.895858
0.768900
0.717640
0.876784
0.756979
0.828505
0.894666
0.923872
0.918508
0.791550
0.975728
0.932813
0.953674
1.066923
1.038909
0.988841
0.852942
0.918508
0.863671
0.992417
1.018643
0.819564
0.929832
1.086593
1.118779
1.182556
1.083612
1.221895
1.155734
1.210570
1.367927
1.305938
1.234412
1.388788
1.360774
1.546741
1.572967
1.450777
1.485944
1.670718
1.837611
2.084970
2.278686
3.644824
10.867715
56.664944
142.433047
350.823998
575.564504
913.269520
1015.639901
1015.639901
1015.639901
1015.639901
1015.639901
717.173815
465.767980
216.592550
109.503865
39.803982
16.356707
8.395910
7.660985
7.207990
7.304549
6.993413
7.165670
7.657409
8.541942
11.373758
15.160441
21.522641
28.250813
39.491653
46.074986
53.451657
57.184696
56.784749
##ZVALUE=365
0.687838
0.696778
0.777841
0.814795
0.934601
0.766516
0.762939
0.758767
0.751615
0.785589
0.762939
0.622869
0.702739
0.740886
0.813603
0.815988
0.815988
0.872612
0.840425
0.826716
0.949502
0.830889
0.651479
0.792742
0.819564
0.709891
0.867844
0.893474
0.934601
0.880957
0.895858
0.779629
0.999570
0.918508
0.847578
1.120567
1.086593
0.938773
0.860691
0.923872
0.991821
1.016855
0.988841
1.029968
0.888705
1.100898
1.016855
1.179576
1.199841
1.181960
1.253486
1.215935
1.413822
1.319647
1.185536
1.389980
1.352429
1.489520
1.690984
1.752973
1.884699
2.233982
2.462864
2.536774
4.209876
23.670793
72.478652
211.818814
388.654470
703.470707
963.250995
1015.638709
1015.638709
1015.638709
1015.638709
818.373561
562.584400
300.555825
160.116553
57.766438
24.057627
8.726716
7.115602
7.130504
6.744862
6.371737
6.213784
6.413460
6.186962
7.678866
9.122491
13.334751
17.808676
24.876595
31.973720
40.718913
##ZVALUE=370
0.735521
0.747442
0.686646
0.840425
0.701547
0.730753
0.925660
0.821948
0.840425
0.731945
0.826716
0.983477
0.817776
0.871420
0.812411
0.911951
0.842810
0.826716
0.962615
0.853539
0.823736
0.865459
0.891685
0.923872
0.798702
0.924468
1.099706
0.916719
0.842810
1.022816
0.947714
0.893474
0.970960
0.886917
0.924468
0.897646
1.009703
0.975728
0.984669
0.823736
0.949502
0.899434
1.007915
1.011491
1.173615
1.107454
1.040697
1.356602
1.050830
1.176000
1.204610
1.136661
1.215935
1.316667
1.311898
1.261830
1.424551
1.333952
1.490712
1.524687
1.681447
1.798868
1.878738
1.981854
2.125502
2.493858
3.168583
13.751984
47.120452
157.493949
296.991467
567.405820
833.203793
1015.699506
1015.699506
1015.699506
1015.699506
1015.699506
781.449676
422.770977
229.281783
83.741546
36.821961
12.666583
7.652640
6.670952
6.576777
5.982518
6.064773
5.948544
5.831718
6.136894
6.628633
8.338690
10.489821
15.924573
##ZVALUE=375
0.853539
0.690818
0.788569
0.673532
0.656843
0.855923
0.707507
0.739694
0.778437
0.772476
0.740886
0.889897
0.631809
0.720620
0.805855
0.703931
0.697970
0.648499
0.780821
0.763535
0.871420
0.832677
0.803471
0.793934
0.765920
0.941753
0.842810
0.762939
0.778437
0.876784
0.719428
0.935793
0.892878
0.867844
0.796914
0.860691
0.876784
0.878572
0.817776
0.908971
0.896454
0.911951
0.979900
1.011491
1.004934
0.972748
1.048446
1.226664
1.063943
1.048446
1.020432
0.960827
1.102686
1.227856
1.156926
1.243949
1.068711
1.290441
1.262426
1.297593
1.275539
1.338720
1.402497
1.729727
1.468658
1.767874
2.012849
2.321601
2.748966
7.711649
27.915835
101.994872
217.071772
477.683544
734.728575
1015.638709
1015.638709
1015.638709
1015.638709
1015.638709
967.616439
582.011938
349.611044
151.332617
69.589615
20.649433
9.458661
6.331801
6.174445
5.979538
5.859733
5.373955
5.399585
5.419850
5.369782
6.261468
##ZVALUE=380
0.644922
0.779629
0.545979
0.606775
0.843406
0.643730
0.706911
0.694990
0.634789
0.780821
0.729561
0.808835
0.776649
0.832677
0.786781
0.766516
0.721812
0.700951
0.686646
0.815988
0.838637
0.900626
0.750422
0.694990
0.813603
0.859499
0.904799
0.799894
0.849962
0.830889
1.008511
0.798702
0.828505
0.939965
0.837445
0.824928
0.907779
0.903606
0.811815
0.827909
0.943542
0.987649
0.790954
0.939965
0.914931
0.954866
1.062751
1.047850
1.024604
0.885725
0.930429
1.106858
0.962615
1.159906
1.046658
1.035929
1.103878
1.222491
1.161695
1.176596
1.148582
1.415610
1.341701
1.227856
1.359582
1.447797
1.654625
1.785755
1.906753
2.136827
2.560616
4.501939
15.565753
73.345900
164.700747
378.405452
604.710579
936.172009
1015.666723
1015.666723
1015.666723
1015.666723
1015.666723
774.875879
521.539450
245.548487
118.546486
35.812855
13.851523
6.759763
5.656481
5.556941
5.256534
5.072951
5.117655
5.050898
##ZVALUE=385
0.676513
0.761747
0.651479
0.700951
0.835657
0.725985
0.674725
0.687838
0.647902
0.730753
0.635982
0.632405
0.637770
0.695586
0.580549
0.625849
0.593662
0.860691
0.769496
0.708699
0.799894
0.779629
0.808835
0.879765
0.902414
0.818968
0.693798
0.780821
0.841618
0.715852
0.730753
0.737906
0.695586
0.786781
0.846982
0.840425
0.766516
0.943542
0.914931
0.904799
0.886917
0.848770
0.874996
0.791550
0.859499
0.736713
0.960827
0.717640
0.697970
0.905991
0.864863
1.016855
0.902414
0.821948
1.026988
1.093745
0.929832
1.100898
1.010895
1.064539
0.998974
1.123548
1.167655
1.095533
1.229644
1.200438
1.338720
1.529455
1.734495
1.827478
1.922846
2.288818
2.150536
2.883673
7.411838
45.743585
119.888783
299.522877
513.044596
872.595906
1015.639901
1015.639901
1015.639901
1015.639901
1015.639901
847.077370
603.279471
330.847502
182.493925
69.694519
25.706887
7.633567
5.625486
5.061626
4.912615
4.970431
##ZVALUE=390
0.666976
0.594854
0.769496
0.457764
0.699759
0.640750
0.603795
0.634789
0.725985
0.772476
0.711679
0.642538
0.747442
0.663996
0.720620
0.628829
0.660419
0.747442
0.734925
0.708699
0.684857
0.560880
0.616908
0.810623
0.821948
0.645518
0.502467
0.553727
0.620484
0.880957
0.882745
0.807643
0.810623
0.872612
0.769496
0.855923
0.646710
0.872612
0.790954
0.853539
0.756979
0.790954
0.901818
0.848770
0.798702
0.776649
0.812411
0.860691
0.794530
0.795722
0.743866
0.947714
0.898838
0.802875
0.985861
0.918508
0.941753
0.883937
0.916719
1.041889
0.990629
1.034737
0.946522
1.178980
1.098514
1.272559
1.234412
1.515746
1.539588
1.842976
1.879930
2.085567
2.070665
2.119541
2.139807
2.411604
3.814697
22.001863
70.827603
220.823884
419.913530
789.006948
1015.605927
1015.605927
1015.605927
1015.605927
1015.605927
1015.605927
815.041661
483.714938
271.351933
104.851723
45.352578
11.970997
6.122589
5.189776
##ZVALUE=395
0.624657
0.749826
0.728965
0.618696
0.686646
0.816584
0.731945
0.708699
0.738502
0.583529
0.559688
0.530481
0.558496
0.678897
0.799894
0.734925
0.750422
0.703931
0.668764
0.676513
0.763535
0.798702
0.643730
0.656843
0.802875
0.866652
0.819564
0.610948
0.635982
0.792742
0.859499
0.608563
0.621676
0.594854
0.827909
0.751615
0.831485
0.763535
0.838637
0.811815
0.652671
0.874996
0.841618
0.823736
0.844598
0.906587
0.786781
0.880957
0.834465
0.967979
0.923872
0.953674
0.869632
0.765920
0.919700
0.842810
1.091957
0.967979
0.950694
1.034737
0.922680
1.128912
1.158714
1.270771
1.151562
1.321435
1.351833
1.432896
1.657605
1.645684
1.797676
1.946688
1.813769
2.020597
1.973510
1.917481
2.022982
2.231598
2.916455
10.988712
40.351748
150.251389
294.222832
575.596690
877.799988
1015.630960
1015.630960
1015.630960
1015.630960
1015.630960
980.520844
595.885515
356.796980
145.134926
63.999891
19.236803
##ZVALUE=400
0.653863
0.547767
0.661612
0.763535
0.695586
0.660419
0.696778
0.784993
0.601411
0.498891
0.568628
0.676513
0.708699
0.691414
0.783801
0.613928
0.716448
0.746846
0.856519
0.649691
0.677705
0.658631
0.607967
0.634789
0.663996
0.645518
0.706911
0.634789
0.634789
0.729561
0.801682
0.881553
0.831485
0.800490
0.814795
0.716448
0.719428
0.789762
0.767708
0.825524
0.835657
0.620484
0.754595
0.767708
0.800490
0.864863
0.909567
0.966787
0.749826
0.842810
0.730753
0.938773
0.938773
0.852942
0.916719
0.898838
0.963807
0.976920
1.004934
1.026988
1.128912
1.073480
1.076460
1.222491
1.103878
1.151562
1.243949
1.356602
1.453757
1.434684
1.657605
1.836419
1.688600
1.685619
1.652837
1.820922
1.705885
2.020597
1.944900
2.209544
2.567768
5.259514
19.088984
81.920624
182.511806
416.916013
677.629709
1015.638709
1015.638709
1015.638709
1015.638709
1015.638709
1015.638709
777.005553
497.380495
234.989524
##END
