##TITLE=DDW02
##FORMAT=SPECTACLE-ASCII V-1.2
##DATA TYPE=ULTRAVIOLET SPECTRUM
##SECOND TYPE=ULTRAVIOLET SPECTRUM
##DATE=03/01/18
##TIME=13:08:17
##SPECTROMETER/DATA SYSTEM=SPECTACLE
##XUNITS=NM EM
##YUNITS=ENERGY
##YFACTOR=1
##FIRSTX=220
##LASTX=410
##NPOINTS=96
##3DDATA=Equidistant
##ZUNITS=NM EX
##FIRSTZ=210
##LASTZ=400
##ZPOINTS=39
##XYDATA=(Y..Y)
##ZVALUE=210
20.628572
17.665625
16.660690
13.836622
11.794567
10.647774
10.559559
9.943843
6.790757
5.320907
4.768968
4.122853
3.425479
3.162622
2.715588
3.063679
3.407598
3.266931
3.214478
3.612638
3.806949
3.861785
3.920794
4.314780
3.951788
4.775524
4.706979
5.095601
5.063415
5.151629
5.663633
5.303621
5.791783
5.724430
5.495548
6.003976
6.144643
6.471872
6.586909
6.297827
7.415414
6.000996
6.834865
6.327629
7.907748
7.244945
6.713867
7.042885
7.731915
7.538795
7.695556
9.097457
7.820725
8.422732
7.615685
8.054972
8.613467
9.107590
8.610487
8.801818
8.412600
8.853674
8.712411
9.386539
9.258986
10.194778
9.309649
10.300875
11.324883
13.790727
14.703870
17.228723
21.507740
24.880767
27.870536
28.022528
30.848980
31.929612
32.989979
33.303499
32.191873
33.563972
30.408502
29.813647
26.037693
22.183657
17.320514
14.815927
13.312697
13.576746
16.744733
19.731522
24.951696
32.478571
40.040612
47.328472
##ZVALUE=215
56.735873
56.601763
48.337579
31.970739
24.431944
19.183755
17.263889
15.876889
15.962720
14.603734
11.695623
9.078979
6.638765
5.299449
3.917813
3.385544
3.187656
3.243685
3.087521
3.350973
4.063845
3.920794
4.073977
4.578829
4.745722
4.502535
4.524589
4.880428
4.999638
4.805923
5.381703
5.094409
5.410910
5.981922
5.549788
6.506443
6.328821
6.448627
6.794930
5.746484
6.194711
6.855726
6.513596
7.512569
6.963611
6.500483
7.779598
7.300973
6.981492
7.501841
7.657409
8.175969
7.823706
8.841753
8.635521
8.442998
7.971525
9.481907
9.156466
8.293986
8.645654
8.842945
9.096861
8.073449
7.619858
9.305477
9.342432
10.301471
10.490417
13.420582
16.988516
17.344952
18.950701
24.027824
25.001764
25.403500
23.514628
24.352670
23.803711
23.143888
21.390915
19.197464
19.008517
15.114546
13.619661
12.220740
11.139512
9.751916
10.244846
8.728504
8.319616
8.460879
8.898973
10.238886
10.715723
16.967654
##ZVALUE=220
145.931840
145.868659
138.305426
110.998750
87.919831
60.187578
44.803619
30.904412
27.355552
25.894642
24.958849
24.418831
21.470785
19.063950
13.321638
10.342598
6.882548
6.082654
4.426837
3.298521
3.419518
3.594756
4.042983
3.865957
4.570484
3.646612
4.577637
4.113913
4.531741
5.206466
4.220605
4.550815
5.972981
5.807877
5.564690
5.611777
5.129576
6.331801
5.944967
5.722642
6.182790
5.392432
5.612969
5.949736
6.391406
6.506443
6.025434
5.849600
5.797744
5.866885
6.330609
6.279945
6.678700
7.519722
6.541610
6.286502
7.138848
5.800724
5.850792
6.759763
6.621480
8.414984
6.445646
7.176995
7.442832
6.802678
7.538795
7.325411
8.070469
10.275841
11.779666
13.181567
14.232993
15.572906
18.970966
19.633770
21.104813
20.958781
21.495819
22.570491
20.500422
20.411611
16.252995
13.941526
11.381507
7.781982
7.749796
7.017851
7.241964
6.296635
7.350445
6.375909
7.013679
5.275607
5.852580
6.453991
##ZVALUE=225
196.444988
204.596519
230.148435
252.280831
241.996646
213.240981
177.870989
121.807456
90.018511
63.430667
43.318868
38.237572
40.989518
39.138794
39.045811
36.104918
27.937889
21.445751
17.742515
12.121797
8.721948
6.882548
5.857944
6.292462
5.971789
6.343722
5.663633
6.090999
6.389618
6.654859
7.480979
7.557869
6.630421
7.424951
7.994771
7.761717
8.503795
9.184480
7.939935
8.134842
6.956458
7.681847
7.391572
8.783937
8.020997
8.041859
8.191466
7.646680
8.101463
8.749962
8.524656
8.140802
8.245707
8.309484
9.553432
7.950664
8.583665
9.668469
8.959770
9.780526
8.683801
7.966757
9.419918
8.323789
9.489655
10.178685
9.565949
10.858774
12.469888
13.492703
14.942884
18.315911
20.363927
22.243857
24.625659
23.878813
23.180842
20.723939
19.255877
19.962788
17.812848
15.458465
15.110970
11.894703
11.309981
10.808706
8.179545
7.528663
8.039474
7.660985
8.145571
8.157492
7.080436
6.733537
7.659793
7.387996
##ZVALUE=230
159.376860
179.993510
265.594721
388.761759
449.212790
492.388606
470.911860
400.982499
309.519768
231.377482
135.364532
92.753768
65.290928
58.881640
60.416460
62.602758
62.488914
57.871938
54.139495
43.654442
32.269955
22.166967
15.085936
10.540485
9.561777
8.036494
8.535981
9.151697
8.609891
9.026527
8.524656
9.547472
8.624792
9.019971
9.452701
10.023713
9.182692
10.061860
9.610653
9.786487
8.842945
9.673834
9.934902
9.671450
9.884834
9.694695
10.361671
9.611845
10.327697
10.894537
10.757446
10.434985
11.695623
11.291504
11.677742
11.771917
11.764765
10.355711
11.151433
11.728406
12.813807
10.647774
13.057590
11.957884
12.580752
12.892485
12.529492
16.205907
16.536713
17.736554
22.434592
25.781989
29.637814
34.029484
32.629967
35.525560
36.687851
35.160780
33.728480
32.770634
30.894876
28.272867
23.697615
17.515421
15.315413
12.762547
11.563897
10.743737
10.643601
9.731650
10.540485
9.789467
11.404753
10.218620
9.222627
9.498000
##ZVALUE=235
38.378835
39.795637
86.902976
196.895599
299.987793
439.664721
540.264845
641.897917
676.407814
624.276996
525.946617
417.262912
264.814496
189.064741
119.080544
90.642571
83.451867
89.461803
96.675754
94.464421
83.949566
74.614882
52.725673
41.734576
26.374459
20.716786
12.830496
10.931492
11.133552
10.086894
10.332465
10.254979
10.608435
10.941625
11.632442
11.133552
10.972619
10.508895
11.514425
10.944605
12.270808
10.571480
12.401938
11.061430
12.971759
12.272000
14.146566
13.369918
13.629794
13.311505
13.141632
13.646483
13.158917
13.965964
13.497472
14.718771
13.838410
14.320612
13.226867
15.322566
14.384985
13.508797
13.679862
13.087988
14.739633
13.637543
16.088486
17.649531
18.657446
21.803975
23.409724
30.136704
31.262636
37.990808
39.187670
40.853620
42.811632
41.816831
41.392446
37.646890
33.351779
29.902458
25.545955
21.632910
18.369555
15.214682
13.785958
12.339950
12.242794
11.546612
10.597706
12.308955
11.184812
11.368990
11.986494
11.167526
##ZVALUE=240
2.541542
2.789497
11.959672
38.312674
118.837953
233.292580
456.643701
672.088861
960.784554
1015.734673
1015.734673
1015.734673
998.806953
755.359530
546.111465
317.256451
212.625861
134.617686
107.486844
107.393861
120.854974
126.884580
121.646523
108.842850
86.965561
69.278479
48.316717
35.265684
23.604631
16.207695
13.719797
11.881590
11.015534
11.704564
9.854436
11.015534
9.963512
9.790659
10.327697
10.572672
9.914637
10.842681
10.032654
9.273887
9.096861
10.381937
10.138750
8.783937
8.409619
8.205771
8.461475
9.429455
9.562969
8.535981
8.804798
9.502769
8.399487
7.344484
9.505749
9.547472
8.504987
8.585453
7.860661
8.377433
8.839965
9.068847
7.710457
8.474588
8.398890
9.910464
12.543797
13.594627
14.554858
17.749667
18.488765
20.978451
22.192597
23.797750
20.834804
19.041896
17.889738
16.359687
13.271570
11.113882
8.994937
7.966757
7.976890
6.413460
6.639957
6.647706
6.344914
6.898642
5.721450
6.007552
5.526543
5.692840
##ZVALUE=245
1.922846
1.749992
1.660585
2.059937
3.630519
12.396574
29.540658
91.736913
177.981853
297.371745
484.946966
618.326664
727.236867
723.372698
646.030903
550.782681
388.365984
276.174545
199.391842
124.597549
102.017522
101.123452
112.993717
129.615664
132.895708
125.504732
113.191605
89.743733
74.741840
50.285459
33.499599
20.547509
13.152957
8.659959
7.660985
6.381869
6.383657
6.170869
6.771684
5.935431
5.757809
5.522966
5.652905
5.766749
6.181598
5.630851
5.663633
6.040931
6.170869
6.171465
5.610585
5.366802
6.197691
5.720854
5.296469
5.236864
4.913807
4.364848
5.116463
4.151464
5.011559
4.901886
4.805923
4.933476
5.128980
4.329681
4.718900
5.055666
5.393624
6.353855
6.503463
6.077886
7.309914
6.996989
7.271767
8.381605
6.908774
7.323623
6.810427
5.408525
6.000996
5.400777
4.305840
5.263686
3.938675
3.434420
3.850460
3.869534
3.204942
3.550649
3.801584
3.341436
4.289746
3.823638
3.778934
3.832579
##ZVALUE=250
1.579523
1.104474
1.129508
1.212955
0.993609
1.500845
1.945496
5.150437
21.492839
49.027801
120.429993
200.631618
302.768946
435.629487
529.897809
588.681698
580.077767
522.678494
442.981720
303.993821
215.285420
148.390532
97.528696
88.370442
103.898644
117.577910
134.418607
137.715936
132.641792
121.827722
96.718669
75.086951
54.179430
32.470822
20.091534
9.928942
6.546974
4.883409
4.196763
4.640818
4.764795
4.589558
4.497766
5.024672
4.108548
4.320741
4.363656
4.455447
3.506541
3.831983
4.587770
4.048944
3.933907
3.760457
3.882647
4.089475
4.117489
3.895760
3.755689
3.552437
3.400445
4.143715
4.539490
3.615618
3.887415
3.720522
4.323721
4.108548
4.885793
5.303621
5.852580
5.674958
6.063581
6.095767
6.702542
6.244779
6.895661
6.343722
6.126761
5.781651
5.269647
4.831553
4.438758
3.644824
3.646612
3.502965
3.748536
3.728867
3.781915
3.325939
3.444552
3.477931
3.360510
3.305674
3.351569
2.760887
##ZVALUE=255
0.878572
0.975728
1.002550
1.213551
1.351833
1.550913
1.297593
1.281500
1.739860
4.545450
29.065609
74.744821
179.395676
292.292833
444.446802
581.146479
710.932016
759.761930
738.856792
663.900971
568.124652
405.053496
287.366509
165.208578
108.751655
80.842972
83.821416
102.669001
120.729804
136.696696
143.103004
139.873624
128.361583
101.708770
81.844926
55.252910
35.427809
19.330978
11.619925
6.489754
5.177855
4.406571
4.668832
4.585981
4.622936
4.522800
4.840493
4.458427
4.520416
4.487634
4.022717
4.279613
4.413724
4.355907
4.083514
4.176497
3.880858
4.032850
4.004836
4.616976
3.700852
3.655553
3.790855
3.992915
4.070997
3.868937
3.862977
4.267693
4.209876
5.052686
5.424619
5.955696
6.213784
6.260872
6.609559
6.971955
7.729530
6.872416
6.303787
5.728602
5.466938
4.175901
4.371405
4.129410
3.498793
3.290772
3.245473
3.298521
2.968907
3.207922
2.915859
2.682805
2.980828
2.808571
2.597570
3.083944
##ZVALUE=260
0.956655
0.966787
0.760555
0.940561
0.928640
1.095533
1.074672
0.946522
1.262426
1.144409
1.061559
2.130866
5.891919
26.309490
56.507587
135.047436
225.506425
377.987623
504.799485
649.241805
711.296797
719.150901
634.464025
516.472459
344.360471
235.286951
137.195587
94.292760
73.040724
79.246759
103.314519
122.136474
139.737725
149.906874
145.827532
129.826665
109.840631
80.460906
58.718920
33.357739
22.024512
11.506677
7.343888
4.679561
4.409552
3.693700
3.854632
3.884435
3.639460
3.785491
3.613830
3.412962
4.021525
3.774762
3.380775
3.665686
2.971888
3.284812
3.399849
3.019571
3.414750
3.335476
3.092885
3.257990
3.431439
2.956986
3.477931
3.394485
3.840923
3.781915
3.729463
4.201531
4.449487
4.341602
4.431605
4.590750
3.916621
3.998876
3.773570
3.423691
3.837943
3.080964
2.838969
2.455711
2.554655
2.618432
2.673864
2.307892
2.623796
2.598763
2.384782
2.155900
2.589822
2.380610
2.355576
2.439618
##ZVALUE=265
0.624657
0.878572
1.017451
0.741482
0.637770
0.815988
0.736713
0.818968
1.135468
0.999570
1.126528
1.260638
1.341701
1.261830
2.810955
15.274882
39.363503
97.104907
178.290606
338.557959
474.720597
613.625646
748.570561
776.917934
710.390806
608.833432
450.024009
319.157839
177.914500
111.840963
71.536899
66.441894
78.412890
109.006763
130.254626
149.124861
154.164433
146.599412
131.992698
105.071664
81.615448
54.658651
36.207438
19.433498
11.284947
6.359816
4.718900
4.056692
3.884435
3.064871
4.080534
3.914833
3.962517
3.473759
3.688931
4.031658
3.487468
3.317595
3.053546
3.274679
3.004670
2.798438
3.316998
2.863407
3.364682
3.074408
3.275871
2.834797
3.251433
3.409982
3.635883
3.547668
3.343821
3.900528
3.502965
3.584623
3.509521
3.511906
3.670454
2.545714
2.836585
2.615452
2.743602
2.236962
1.844764
2.158880
2.218485
2.075434
2.062917
2.179742
1.929998
1.886487
2.004504
2.201796
2.062917
1.742840
##ZVALUE=270
0.452995
0.757575
0.486970
0.758767
0.779629
0.599623
0.709891
0.959635
0.887513
0.952482
0.909567
1.196861
0.983477
1.328588
1.200438
1.198649
1.632571
7.558465
24.465919
76.655746
149.196982
262.059569
453.263521
608.088970
770.793557
830.677748
801.029801
722.782612
567.124486
423.774719
291.169882
154.989958
91.784596
56.828856
58.578849
83.247423
104.832649
133.623481
149.180889
155.269504
150.971413
130.332708
107.631683
78.483820
57.302713
32.794476
21.271706
11.377931
7.658601
4.731417
4.015565
3.971457
3.895760
3.295541
3.823638
3.800988
3.467798
3.726482
3.541708
3.207922
3.519654
3.095865
3.092885
3.335476
2.811551
3.091693
3.012419
2.982616
3.369451
3.577471
3.480911
3.313422
3.575683
3.894567
3.682971
3.736615
3.571510
3.172755
3.258586
2.797842
2.974868
2.404451
2.551675
2.408624
2.471805
2.414584
2.095699
2.144575
2.126694
2.305508
1.867414
2.211928
2.478957
2.014637
2.189875
2.535582
##ZVALUE=275
0.514984
0.519753
0.520945
0.663996
0.556707
0.803471
0.570416
0.807643
0.716448
0.638962
0.651479
0.724792
0.946522
1.066923
1.032948
1.068711
1.119971
1.287460
1.482964
3.765821
13.565421
50.074458
113.768578
211.263895
397.686958
540.472865
714.515448
813.181996
857.073665
808.637738
676.531792
544.239879
348.704457
219.333768
105.934739
62.014461
45.540929
55.312514
82.879663
104.709864
132.107735
146.088004
151.278973
146.921873
128.161907
109.434724
77.910423
59.673786
36.913753
22.742748
12.253523
7.737875
4.633665
4.129410
3.830791
3.630519
3.397465
3.758669
3.968477
3.744960
3.382564
3.463626
3.477931
3.263950
3.156662
3.134608
3.471971
3.150702
3.065467
3.742576
3.757477
4.008412
4.382730
4.067421
4.119873
3.939867
3.697872
3.663898
2.955794
2.990961
2.787709
2.426505
2.649426
2.585649
2.428889
2.427697
2.311468
2.396703
2.105832
2.086759
2.205968
1.893640
2.268553
2.023578
2.149940
2.084970
##ZVALUE=280
0.446439
0.519753
0.504851
0.631809
0.707507
0.577569
0.681877
0.699759
0.805855
0.678897
0.667572
0.840425
0.810623
0.757575
0.661612
0.901818
0.791550
0.850558
1.054406
1.269579
1.069903
1.617670
8.677840
28.284788
91.586709
168.381929
315.910578
453.381538
649.443865
780.381560
863.236785
873.295665
799.371004
624.429584
466.033816
270.043612
161.287785
74.769855
44.164658
39.086938
54.618716
80.199838
101.660490
127.473474
143.035650
147.881508
142.754912
124.772787
105.639696
77.968836
57.288408
34.200549
22.893548
11.824965
7.336736
4.900694
4.267693
3.716946
3.451705
3.538728
3.481507
3.246665
3.372431
3.359914
3.451705
3.564954
3.410578
3.183484
3.148913
3.636479
3.679991
3.962517
4.134774
4.111528
4.016757
3.494620
3.387928
3.426671
3.041625
2.651811
2.770424
2.425909
2.682805
2.616644
2.266765
2.310872
2.434850
2.189875
2.341866
2.049804
2.134442
2.041459
2.019405
2.078414
2.129674
2.094507
##ZVALUE=285
0.501871
0.374913
0.315905
0.490546
0.552535
0.617504
0.402927
0.580549
0.699759
0.605583
0.628829
0.549555
0.647902
0.772476
0.717640
0.706911
0.712872
0.691414
0.691414
0.921488
0.919700
1.134872
1.078844
1.357794
3.973842
13.534427
48.079491
101.995468
222.485662
351.009965
540.256500
697.993636
829.573870
926.843882
903.262496
769.250393
623.163581
388.124585
244.649649
109.231472
55.467486
30.399561
33.857822
53.398609
71.798563
100.151896
120.223761
138.321519
143.829584
140.942931
126.364827
102.466941
83.248615
54.894686
38.388968
21.625757
12.856722
6.666780
4.557967
3.669858
3.097653
3.415942
3.279448
3.281832
3.313422
3.147721
3.012419
3.238916
3.235936
3.300905
3.504753
3.397465
3.659725
3.395677
3.529787
3.199577
2.925992
2.918839
2.598763
2.473593
2.266765
2.352595
2.342463
2.122521
1.987815
1.990795
1.826882
2.098680
2.021790
1.853704
1.743436
1.905560
1.845956
1.909733
2.094507
1.639724
##ZVALUE=290
0.488758
0.584722
0.588894
0.543594
0.439882
0.502467
0.531673
0.540614
0.397563
0.481606
0.747442
0.545979
0.460744
0.619888
0.463724
0.668764
0.668764
0.566840
0.654459
0.712872
0.896454
0.892878
1.059771
0.961423
1.312494
1.113415
1.692772
5.748868
26.636720
64.158440
127.200484
270.865560
420.116782
623.430610
751.541853
849.847794
839.625597
723.213553
592.598915
395.987630
261.969566
130.196810
68.475604
29.529929
23.143888
32.605529
47.190785
69.543719
91.381669
115.829706
130.253434
140.146613
136.349797
120.368004
103.404522
75.252652
55.022836
34.601688
21.801591
11.368990
7.323623
3.793836
3.456473
2.581477
2.476573
2.528429
2.217889
2.748966
2.399683
2.517700
2.644658
2.736449
2.932549
2.465844
2.631545
2.739429
2.285838
2.115965
2.028942
2.036691
1.981854
1.832843
1.863837
1.666546
1.883507
1.583695
1.392961
1.416802
1.524687
1.504421
1.586676
1.601577
1.635551
1.608729
1.696944
1.544952
##ZVALUE=295
0.394583
0.514984
0.359416
0.397563
0.418425
0.453591
0.443459
0.427961
0.549555
0.491738
0.527501
0.371933
0.505447
0.422597
0.540614
0.526905
0.572801
0.415444
0.606775
0.666976
0.648499
0.436902
0.626445
0.850558
0.839829
1.069903
0.960827
1.121759
1.356602
2.386570
8.869767
39.674640
88.735819
209.117532
334.153771
531.499982
666.782856
796.720982
822.546482
761.817694
655.491948
475.130677
330.531001
176.626444
96.136928
37.079453
21.179914
19.570589
27.145743
45.009851
62.074661
89.046955
107.529759
126.200914
132.263899
131.212473
116.606951
96.008778
76.727867
52.809715
36.238432
20.104647
12.618899
6.871819
4.123449
3.188848
2.532601
2.393723
2.397895
2.249479
2.344847
2.553463
2.402663
2.511740
2.669692
2.395511
2.466440
1.980662
1.877546
1.839995
1.913905
1.987815
1.505613
1.610518
1.657605
1.537800
1.584888
1.741648
1.399517
1.446605
1.422763
1.404881
1.442432
1.389980
1.338720
1.472831
##ZVALUE=300
0.363588
0.389814
0.406504
0.364780
0.267625
0.423789
0.356436
0.490546
0.414848
0.430942
0.295639
0.417829
0.405908
0.371933
0.497699
0.459552
0.509620
0.443459
0.584722
0.437498
0.619888
0.628829
0.682473
0.783801
0.674725
0.794530
0.827909
0.830889
1.037717
0.927448
1.016855
1.306534
5.536675
20.194650
70.718527
136.733651
278.877616
418.371558
609.572530
720.427632
801.677704
793.570876
684.124827
560.448766
374.111533
243.446827
123.375654
67.523718
26.992559
14.876723
16.779900
24.066567
40.351748
54.920912
78.986883
98.528862
117.519498
125.696659
123.176575
113.638639
93.036890
75.213909
51.331520
36.561489
20.352602
12.892485
6.987453
4.163980
2.678633
2.338886
2.188683
2.226830
2.174973
2.208948
2.148747
2.290606
2.048612
2.062917
2.012849
1.798868
1.738667
1.788735
1.739860
1.722574
1.516938
1.398921
1.490712
1.529455
1.319647
1.339912
1.485944
1.354814
1.315475
1.464486
1.261830
1.417994
##ZVALUE=305
0.324845
0.378489
0.184774
0.371933
0.343919
0.300407
0.324845
0.352859
0.476837
0.514984
0.425577
0.473857
0.555515
0.408888
0.379682
0.449419
0.514984
0.496507
0.536442
0.618696
0.625849
0.479817
0.581741
0.537634
0.672936
0.774860
0.896454
0.883937
0.807643
0.712872
1.036525
0.899434
1.101494
1.210570
2.204776
12.604594
37.140846
111.281872
201.875567
373.669863
519.761443
696.775913
788.370967
808.482766
747.558475
588.806868
456.386805
288.395882
179.297924
82.941651
40.737987
15.847683
11.338592
15.282631
22.639632
38.801432
53.451657
76.869726
94.545484
111.885667
116.323829
115.420818
107.454658
88.688731
71.098804
48.536658
35.078526
20.185709
12.180805
6.364584
4.223585
2.893806
2.437830
2.178550
2.115965
1.937747
1.847744
1.733899
1.903772
1.856685
1.916885
1.674891
1.586676
1.471639
1.559854
1.458526
1.289845
1.468658
1.481771
1.585484
1.327991
1.350641
1.364946
1.233816
1.322627
1.358986
##ZVALUE=310
0.319481
0.337958
0.205636
0.445843
0.317693
0.178814
0.152588
0.233650
0.228882
0.364780
0.394583
0.499487
0.575781
0.615716
0.397563
0.251532
0.347495
0.350475
0.376701
0.398755
0.316501
0.369549
0.423789
0.531673
0.519753
0.585914
0.595450
0.597835
0.638962
0.656843
0.696778
0.786781
0.782609
0.928640
1.018643
1.084805
1.289845
4.905462
17.926693
62.419772
129.684806
276.654959
429.769754
635.726452
755.325556
830.659866
806.797743
687.981844
561.356544
372.009873
248.323679
124.032497
66.482425
24.879575
11.390448
9.418726
12.815595
21.077991
31.331778
49.771667
65.938830
87.671876
100.430846
111.837983
111.530423
101.578832
88.564754
67.896843
52.044988
31.965971
21.055937
11.058450
6.887913
3.623962
2.766848
2.202988
2.116561
1.646876
1.546741
1.540780
1.419783
1.400709
1.322627
1.336932
1.359582
1.348853
1.463890
1.482964
1.168847
1.244545
1.329780
1.361966
1.536608
1.225471
1.340508
1.267791
##ZVALUE=315
0.144839
0.178814
0.231862
0.221729
0.340939
0.282526
0.342727
0.358820
0.279546
0.398755
0.360608
0.304580
0.389814
0.320673
0.274777
0.372529
0.424981
0.393987
0.215769
0.449419
0.372529
0.382662
0.462532
0.480413
0.446439
0.457764
0.449419
0.428557
0.570416
0.556707
0.761747
0.711679
0.586510
0.738502
0.898838
0.662804
0.934601
0.988841
1.109838
2.501607
9.463429
39.293766
85.781813
195.478797
319.374800
509.993434
632.831454
744.607449
771.531463
710.919499
612.748861
443.431735
314.523578
166.067481
91.627836
34.205914
15.241504
7.492900
8.204579
11.738539
17.414689
30.303597
42.465925
63.608885
78.817606
95.720887
103.984475
104.687810
98.180771
82.035661
66.875815
46.452880
33.382773
18.343925
11.340976
6.045699
3.782511
2.432466
1.856685
1.668930
1.283884
1.397729
1.246929
1.284480
1.274943
1.260638
1.272559
1.561642
1.385808
1.268983
1.321435
1.141429
1.250505
1.061559
1.251698
1.199841
##ZVALUE=320
0.208616
0.214577
0.219941
0.352859
0.187755
0.262856
0.463724
0.310540
0.333786
0.400543
0.413656
0.368953
0.304580
0.280738
0.240803
0.462532
0.448823
0.335574
0.415444
0.463724
0.397563
0.390410
0.564456
0.434518
0.611544
0.392795
0.563860
0.481606
0.635982
0.542998
0.584722
0.520945
0.327826
0.617504
0.687838
0.696778
0.650883
0.723600
0.654459
1.025796
1.183748
1.536608
4.163980
22.756457
55.835843
144.016743
240.536928
411.131978
542.766452
693.301558
756.274462
744.536519
668.942928
512.989759
374.517441
212.897658
122.863650
51.098466
24.398565
9.224415
6.645918
7.127523
9.635687
16.322732
24.570823
40.345788
54.643750
73.567629
86.701512
97.833872
98.245740
91.106892
78.938603
60.137510
45.764446
29.261708
19.803643
10.094643
6.143451
3.234744
2.243519
1.699924
1.499653
1.328588
1.250505
1.144409
1.116991
1.219511
0.996590
1.025796
1.078844
0.991821
1.013875
1.120567
1.138449
1.381636
##ZVALUE=325
0.336766
0.434518
0.361800
0.330806
0.424981
0.342727
0.477433
0.385642
0.485778
0.480413
0.403523
0.342727
0.371933
0.408888
0.425577
0.296831
0.386834
0.427961
0.474453
0.618696
0.556707
0.639558
0.483990
0.568628
0.705719
0.479817
0.496507
0.463724
0.649691
0.792742
0.657439
0.750422
0.528693
0.691414
0.597835
0.826716
0.741482
0.779629
0.749826
0.901818
1.103878
0.907779
1.052618
1.112819
2.356768
14.206767
38.126707
100.362897
181.503892
340.410471
478.959680
644.093752
735.198855
767.681599
718.930960
569.947958
430.506468
262.862444
159.090757
70.129633
34.924746
11.963844
6.936789
5.879998
6.441474
9.860992
14.532804
25.002956
37.141442
55.188537
69.374442
83.228946
90.303421
91.475844
85.297823
70.672631
56.778789
40.892959
28.596520
16.169548
9.727478
5.121827
3.332496
2.216697
1.720786
1.528859
1.395941
1.387596
1.273751
1.339912
1.145601
1.204610
1.157522
1.303554
1.247525
1.338720
##ZVALUE=330
0.361800
0.413656
0.353456
0.403523
0.245571
0.428557
0.257492
0.263453
0.231862
0.416636
0.343919
0.342727
0.304580
0.393987
0.372529
0.463724
0.486970
0.207424
0.335574
0.391603
0.487566
0.444651
0.287890
0.404716
0.382662
0.447631
0.565648
0.501871
0.383854
0.441670
0.537634
0.612736
0.493526
0.281930
0.546575
0.491738
0.599623
0.695586
0.602603
0.712872
0.837445
0.737906
0.712872
0.765920
0.966787
1.025796
1.301765
6.262660
20.205975
65.755844
128.246546
255.707502
380.392671
550.825000
659.219623
729.769468
708.215833
601.741672
482.567549
308.771729
198.380947
92.483759
47.035813
17.632842
8.003712
5.254745
5.183816
6.085634
8.334517
14.762878
22.198558
36.401749
48.644543
66.275001
76.890588
84.744692
86.317658
78.834891
67.890882
51.736832
38.552880
24.191737
16.566515
9.380579
5.979538
3.353953
2.231598
1.620650
1.443624
1.376867
1.281500
1.019835
0.959635
1.098514
0.941753
0.914931
##ZVALUE=335
0.153780
0.005960
0.095963
0.089407
0.246763
0.192523
0.062585
0.181794
0.023842
0.206828
0.144839
0.133514
0.210404
0.149608
0.267625
0.137687
0.082850
0.285506
0.201464
0.159740
0.224710
0.045896
0.269413
0.213981
0.264645
0.228882
0.296831
0.143647
0.299811
0.307560
0.376701
0.308752
0.249743
0.405908
0.305772
0.216961
0.333786
0.208616
0.498891
0.408888
0.504851
0.413656
0.395775
0.479817
0.546575
0.760555
0.751615
0.875592
0.891685
2.883673
9.989738
40.657520
86.273551
192.577839
310.721993
483.196974
603.925586
698.190928
706.337690
629.737973
528.732538
360.640883
244.650841
125.457644
65.230727
22.822618
10.387897
5.577803
4.769564
4.720688
5.515814
8.057952
12.408495
21.690726
31.456947
47.791600
59.883595
71.613789
79.035759
78.733563
73.841810
61.131716
50.312877
36.889911
27.226806
16.716719
10.590553
5.424619
3.677607
2.033710
1.418591
1.084805
0.891685
0.950694
1.055598
0.953674
##ZVALUE=340
0.059605
0.114441
0.256896
0.219941
0.114441
0.165701
0.182986
0.237823
0.119805
0.166893
0.170469
0.267625
0.319481
0.174642
0.201464
0.150800
0.333786
0.180602
0.271797
0.062585
0.274777
0.280738
0.375509
0.394583
0.287890
0.361800
0.388622
0.220537
0.358820
0.251532
0.384450
0.287890
0.566840
0.370741
0.498891
0.412464
0.358820
0.456572
0.518560
0.401735
0.398755
0.565648
0.539422
0.558496
0.535846
0.657439
0.721812
0.566840
0.877976
0.774860
1.191497
1.305938
7.185936
21.741986
70.545673
139.106512
283.768773
408.682823
565.995574
659.031868
706.458688
674.134493
556.914806
437.416434
271.885991
168.858767
77.293515
37.872791
11.841655
6.071925
4.563928
4.497766
4.735589
5.244613
7.710457
11.681914
20.495653
30.172467
45.381784
56.178570
68.280697
73.906779
73.851943
69.920421
59.880614
49.555898
35.483837
26.165843
15.801787
10.330677
5.857944
3.534555
1.914501
1.663566
1.374483
1.292825
##ZVALUE=345
0.287890
0.212789
0.077486
0.184774
0.208616
0.151992
0.161529
0.068545
0.093579
0.166893
0.196695
0.300407
0.307560
0.159740
0.223517
0.238419
0.246763
0.273585
0.271797
0.305772
0.229478
0.278950
0.193715
0.312924
0.438690
0.253916
0.406504
0.301600
0.186563
0.356436
0.492930
0.307560
0.347495
0.320673
0.411868
0.485778
0.401735
0.343919
0.357628
0.426769
0.531673
0.351667
0.317693
0.310540
0.306964
0.552535
0.570416
0.640750
0.550747
0.601411
0.737906
0.852942
0.986457
1.081824
2.398491
15.369654
42.891502
115.154982
199.324489
355.718732
485.162735
640.597939
705.605745
710.762739
641.831756
484.537482
358.877778
209.774971
118.344426
47.234893
20.515919
7.379651
4.972816
4.310608
4.084706
4.074574
4.673600
7.040501
11.061430
18.810630
27.361512
40.876865
51.084757
60.330629
66.008568
68.334937
65.012574
57.034492
48.140883
35.963655
26.315451
16.129613
10.726452
5.685687
3.689528
2.056956
##ZVALUE=350
0.143647
0.196695
0.210404
0.222921
0.404716
0.234842
0.031590
0.223517
0.128746
0.122786
0.137687
0.037551
0.170469
0.052452
0.186563
0.188947
0.158548
0.250936
0.218749
0.293851
0.366569
0.286698
0.214577
0.269413
0.321865
0.207424
0.183582
0.304580
0.279546
0.210404
0.238419
0.423789
0.415444
0.287890
0.261664
0.354648
0.408888
0.493526
0.347495
0.471473
0.413656
0.360608
0.387430
0.480413
0.458956
0.420809
0.351667
0.452995
0.635982
0.440478
0.520945
0.639558
0.618696
0.723600
0.881553
0.870824
1.275539
7.289648
23.872852
74.243546
141.631961
283.840895
411.229730
574.994683
674.814582
719.901919
678.032637
553.714633
417.369008
241.405964
145.863891
66.295862
30.596852
9.454489
5.246997
4.092455
3.885627
3.607869
3.604889
4.319549
5.817413
10.460615
15.384555
24.614930
32.780766
44.469833
52.850842
60.329437
61.739683
59.836507
54.487586
43.895841
34.963489
23.481846
16.508698
10.241866
##ZVALUE=355
0.282526
0.204444
0.151992
0.241995
0.233650
0.159740
0.240803
0.194907
0.130534
0.138879
0.249743
0.152588
0.286698
0.154972
0.242591
0.206828
0.272989
0.284910
0.253916
0.203848
0.187755
0.188947
0.293851
0.219941
0.227690
0.386834
0.335574
0.334978
0.384450
0.128746
0.366569
0.360608
0.202656
0.289679
0.144839
0.363588
0.337958
0.409484
0.326633
0.400543
0.360608
0.363588
0.443459
0.398755
0.432730
0.438690
0.360608
0.541806
0.562668
0.494719
0.468493
0.599623
0.520945
0.591874
0.575781
0.737906
0.749826
0.927448
1.099706
2.284646
15.198588
41.683912
114.468932
205.250978
372.890830
507.029891
653.106570
714.159012
693.872571
608.359575
444.590449
322.488546
179.322958
97.989440
37.854910
16.164780
5.948544
4.313588
3.815889
3.618598
3.352761
3.287792
3.770590
5.099773
8.464456
12.847781
20.724535
28.662682
39.930940
47.118664
54.666996
56.793690
54.541826
50.648451
41.000843
33.480525
##ZVALUE=360
0.059605
0.041723
0.044703
0.152588
0.078678
0.115633
0.210404
0.088811
0.164509
0.245571
0.141859
0.189543
0.055432
0.074506
0.210404
0.053644
0.121593
0.076890
0.235438
0.122786
0.069737
0.106692
0.055432
0.248551
-0.019670
0.104904
0.193715
0.208616
0.170469
0.169873
0.217557
0.230670
0.144839
0.192523
0.240803
0.345707
0.147820
0.101924
0.280738
0.278950
0.263453
0.307560
0.375509
0.261664
0.264645
0.221729
0.329614
0.210404
0.276566
0.317693
0.381470
0.160933
0.416636
0.581741
0.657439
0.632405
0.756979
0.771880
0.611544
0.627637
1.018643
1.368523
4.973412
24.939775
62.797666
160.748959
266.141891
429.968834
555.193424
657.821894
671.144724
606.911778
512.311459
352.005959
240.253806
120.121837
64.123869
23.911595
9.295940
4.370809
3.562570
3.183484
3.048778
2.624989
2.842546
3.136992
4.111528
6.382465
9.850860
15.944839
23.196936
33.240914
40.423870
48.032999
50.743818
50.403476
##ZVALUE=365
0.237823
0.320673
0.332594
0.415444
0.086427
0.254512
0.050664
0.239611
0.248551
0.172853
0.135899
0.190735
0.197887
0.196695
0.103712
0.225902
0.171661
0.222921
0.182986
0.189543
0.293851
0.221729
0.168681
0.270605
0.231862
0.097752
0.256896
0.253916
0.297427
0.192523
0.318885
0.350475
0.368953
0.239611
0.324845
0.187755
0.285506
0.339746
0.372529
0.380874
0.176430
0.308752
0.206828
0.300407
0.428557
0.344515
0.395775
0.450611
0.477433
0.355840
0.437498
0.454783
0.378489
0.494719
0.382662
0.554919
0.374913
0.755787
0.810623
0.521541
0.736713
0.749826
0.940561
1.052618
1.971722
12.269616
36.635995
106.653571
199.390650
359.283686
486.170650
619.698763
666.284561
631.511807
545.112491
388.430953
272.255540
147.053599
80.885887
30.267835
12.359619
4.514456
3.653765
3.289580
3.039837
2.913475
2.745986
2.498627
2.736449
3.684759
5.376935
9.241700
12.725592
20.057559
26.759505
35.497546
##ZVALUE=370
0.179410
0.175834
0.140667
0.346899
0.302792
0.153780
0.167489
0.237823
0.191927
0.085831
0.231862
0.184774
0.165701
0.296831
0.348687
0.186563
0.107884
0.212789
0.114441
0.293851
0.296831
0.060797
0.212789
0.221729
0.291467
0.169873
0.134706
0.317693
0.244975
0.123978
0.208616
0.323653
0.143647
0.266433
0.274777
0.330806
0.298619
0.305772
0.313520
0.240803
0.386834
0.338554
0.286698
0.250936
0.255704
0.263453
0.311732
0.371933
0.275970
0.418425
0.330806
0.401735
0.452995
0.495911
0.390410
0.380874
0.519753
0.542998
0.505447
0.568628
0.510812
0.778437
0.767708
0.791550
0.963807
1.056790
1.501441
6.085634
21.519661
73.986650
145.323873
285.121799
417.812467
583.657622
659.237504
661.744475
588.474870
446.266532
320.912004
176.301003
97.830892
38.722754
17.932653
6.551743
4.170537
3.375411
2.960563
2.686977
2.484918
2.413988
2.464652
2.595782
3.163815
4.785657
6.876588
12.098551
##ZVALUE=375
0.207424
0.142455
0.242591
0.201464
0.243783
0.167489
0.117421
0.277758
0.148416
0.242591
0.095963
0.169873
0.152588
0.109673
0.179410
0.170469
0.237823
0.241995
0.155568
0.164509
0.098944
0.143647
0.197887
0.300407
0.290871
0.284910
0.213981
0.135899
0.137687
0.120997
0.429749
0.165701
0.238419
0.255704
0.247955
0.314713
0.272989
0.153780
0.243783
0.305772
0.214577
0.185966
0.386834
0.335574
0.383854
0.199676
0.297427
0.338554
0.356436
0.298619
0.320673
0.251532
0.336766
0.351667
0.345707
0.465512
0.378489
0.362992
0.514984
0.553727
0.520945
0.503659
0.593662
0.615716
0.755787
0.541806
0.611544
1.039505
1.034737
3.402829
10.891557
40.819645
94.832778
236.637592
380.858779
586.553812
707.275867
774.030685
736.254454
591.442585
447.281599
265.499949
164.235830
77.545643
38.206577
12.352467
5.462766
3.535748
3.322959
2.958775
2.854466
2.641678
2.464652
2.333522
2.368689
2.955794
##ZVALUE=380
0.211596
0.106692
0.172853
0.120997
0.148416
0.353456
0.155568
0.265837
0.242591
0.111461
0.256896
0.296831
0.363588
0.365973
0.268817
0.334978
0.194907
0.170469
0.159740
0.328422
0.334978
0.290871
0.093579
0.318885
0.425577
0.316501
0.294447
0.303984
0.389814
0.314713
0.245571
0.212789
0.277758
0.201464
0.453591
0.334978
0.215769
0.221729
0.311732
0.334978
0.390410
0.504851
0.287890
0.397563
0.312924
0.213981
0.445843
0.473857
0.328422
0.477433
0.565648
0.398755
0.411868
0.557899
0.425577
0.478625
0.347495
0.461936
0.478625
0.459552
0.437498
0.345707
0.609756
0.624657
0.733733
0.710487
0.752807
0.699759
0.908971
1.142621
1.179576
1.876950
6.136894
28.549433
66.866875
174.585581
307.542682
524.414778
698.567629
853.601694
868.030787
751.546621
615.123510
424.310565
285.778642
138.140917
67.801476
21.604896
8.112788
4.146695
3.519654
3.213882
3.031492
2.810955
2.786517
2.689958
##ZVALUE=385
0.148416
0.046492
0.176430
0.115633
0.195503
0.202656
0.283718
0.233650
0.183582
0.203848
0.013709
0.042915
0.293851
0.183582
0.126958
0.271797
0.251532
0.234842
0.139475
0.272989
0.237823
0.344515
0.131726
0.206828
0.252724
0.103712
0.262856
0.314713
0.321865
0.353456
0.362992
0.267625
0.170469
0.248551
0.147820
0.322461
0.159740
0.355840
0.340939
0.358820
0.299811
0.209808
0.243783
0.207424
0.230670
0.242591
0.263453
0.203848
0.362992
0.189543
0.362992
0.386834
0.336766
0.293851
0.364780
0.348687
0.417829
0.297427
0.479817
0.435710
0.311732
0.549555
0.443459
0.546575
0.508428
0.587702
0.624657
0.644922
0.597835
0.869632
0.760555
0.951886
0.988841
1.202822
2.777576
15.610456
41.205883
107.495785
194.539428
359.441638
501.710773
661.634803
731.650591
754.645467
702.973008
564.113855
427.019000
249.256492
146.219730
59.999824
22.168756
5.272627
3.156662
3.005862
2.925992
2.786517
##ZVALUE=390
0.208616
0.041723
0.038743
0.169873
0.103712
0.132918
0.150800
0.083447
0.102520
0.115633
0.168681
0.257492
0.319481
0.235438
0.313520
0.180602
0.089407
0.215769
0.219941
0.336766
0.076890
0.195503
0.115633
0.211596
0.232458
0.386834
0.234842
0.242591
0.017881
0.136495
0.208616
0.223517
0.296831
0.114441
0.136495
0.292659
0.334978
0.251532
0.056624
0.060797
0.125766
0.256896
0.232458
0.169873
0.161529
0.322461
0.238419
0.487566
0.381470
0.334978
0.210404
0.340939
0.258684
0.197887
0.268817
0.220537
0.179410
0.201464
0.263453
0.276566
0.216961
0.312924
0.238419
0.430942
0.284910
0.501871
0.508428
0.458956
0.632405
0.688434
0.569820
0.675917
0.783801
0.815988
0.835657
0.945926
1.466870
8.148551
25.365949
81.483722
156.414509
289.454460
392.713547
507.245660
569.127798
603.187680
580.484867
503.147840
420.318842
291.879773
191.670656
91.367960
43.511987
11.055470
4.084706
2.816916
##ZVALUE=395
0.139475
0.199676
0.101924
0.197887
0.035763
0.095963
0.103712
0.121593
0.106692
-0.046492
0.126958
0.244975
0.225902
0.060797
0.050664
0.125766
0.238419
0.077486
0.000000
0.092983
-0.050664
0.096560
0.150800
0.138879
0.218749
0.160933
0.105500
0.159740
-0.089407
0.131726
0.275970
0.284910
0.192523
0.201464
0.224710
0.260472
0.270605
0.204444
0.273585
0.315905
0.258684
0.295639
0.113845
0.247955
0.219941
0.152588
0.084639
0.237823
0.193715
0.298619
0.290871
0.231862
0.312924
0.300407
0.320673
0.303984
0.406504
0.289679
0.266433
0.298619
0.259876
0.317693
0.274777
0.194907
0.317693
0.265837
0.438690
0.469685
0.343919
0.692606
0.583529
0.729561
0.631809
0.531673
0.509620
0.643730
0.618696
0.696778
0.918508
4.350543
17.273426
61.069727
119.302869
226.152539
332.366824
476.533771
557.797551
596.820712
571.089983
475.255847
367.774963
225.809813
138.834715
61.137676
29.141903
9.947419
##ZVALUE=400
0.261664
0.287890
0.159740
0.275970
0.000000
0.155568
0.026822
0.108480
0.052452
0.128746
0.202656
0.082850
0.195503
0.047684
0.130534
-0.028610
0.186563
0.108480
0.174642
0.236630
0.182986
0.148416
0.235438
0.071526
0.153780
0.115633
0.121593
0.155568
0.232458
0.228882
0.502467
0.137687
0.172853
0.184774
0.357628
0.158548
0.179410
0.308752
0.135899
0.173450
0.048876
0.208616
0.268817
0.334978
0.309944
0.180602
0.174642
0.212789
0.239611
0.353456
0.247955
0.106692
0.422597
0.266433
0.250936
0.402927
0.246763
0.045896
0.350475
0.226498
0.291467
0.273585
0.380874
0.349879
0.454783
0.520945
0.430942
0.432730
0.543594
0.445843
0.482798
0.684857
0.627637
0.589490
0.446439
0.726581
0.630617
0.647902
0.667572
0.821948
0.986457
2.462864
8.808970
35.946965
84.411502
204.920769
335.204601
517.878532
619.481802
688.728690
668.520927
551.904440
434.248447
276.498795
179.955959
89.510679
##END
