##TITLE=FDDW01
##FORMAT=SPECTACLE-ASCII V-1.2
##DATA TYPE=ULTRAVIOLET SPECTRUM
##SECOND TYPE=ULTRAVIOLET SPECTRUM
##DATE=03/01/18
##TIME=13:11:20
##SPECTROMETER/DATA SYSTEM=SPECTACLE
##XUNITS=NM EM
##YUNITS=ENERGY
##YFACTOR=1
##FIRSTX=220
##LASTX=410
##NPOINTS=96
##3DDATA=Equidistant
##ZUNITS=NM EX
##FIRSTZ=210
##LASTZ=400
##ZPOINTS=39
##XYDATA=(Y..Y)
##ZVALUE=210
17.465949
17.169714
15.096664
13.232827
10.237694
10.165572
9.996891
8.389950
6.993413
5.364418
4.200935
3.499985
3.206730
2.470613
2.723932
3.145933
3.061891
3.016591
3.167987
3.279448
3.797412
4.293919
4.361868
5.692840
6.018877
6.297827
6.593466
9.573698
11.299849
12.363791
14.176965
15.611649
16.465783
20.125508
17.410517
19.671917
20.947456
20.122528
19.292831
20.107627
18.211603
17.458797
16.725659
15.929937
15.989542
14.411807
13.528466
12.740493
13.388991
12.229681
12.865663
12.001991
12.329817
10.264516
10.011792
11.083484
9.884834
10.135770
8.993745
8.872747
8.790493
9.949803
8.147955
8.087754
8.839965
9.298921
10.307431
8.979440
10.134578
11.789799
14.828444
17.398596
19.877553
23.452640
23.886561
29.778481
29.426813
31.697750
32.674670
29.779673
29.138923
26.329756
23.020506
18.870831
16.434789
12.316704
11.182427
8.554459
9.564757
9.577870
13.903975
17.396808
22.697449
29.346943
34.853816
44.699907
##ZVALUE=215
68.374872
63.592792
49.686432
35.373569
28.342605
22.761822
18.446445
16.840696
15.899539
15.293956
12.052655
9.287596
7.610917
5.746484
4.354715
3.179908
3.408790
3.933907
4.076958
4.032850
4.387498
5.190969
4.129410
4.324913
5.321503
6.595850
9.140968
9.794831
12.577772
14.757514
17.890930
19.895434
20.559430
21.209717
23.020506
22.844672
23.247600
23.228526
23.462772
23.828745
20.085573
20.238757
19.385815
21.009445
17.809868
18.261671
17.622709
16.095638
15.168786
14.504790
14.378428
12.812614
12.864470
13.169646
12.407899
11.982918
11.395812
11.855960
10.553598
11.744499
10.014772
10.574460
9.975433
9.413958
10.035634
9.192824
10.428429
11.027455
12.352467
13.321638
16.002655
18.707514
21.316409
23.221970
26.281476
25.432706
25.586486
24.760962
25.286674
22.809505
22.151470
20.757914
19.661784
17.933846
15.287995
13.867617
11.634827
10.652542
9.817481
9.154677
9.396672
9.579659
9.467602
9.262562
13.652444
20.273924
##ZVALUE=220
150.342584
148.785710
142.080784
117.138624
96.079707
71.992874
51.284432
31.151772
29.871464
26.983619
25.875568
24.736524
20.784736
18.526912
15.731454
11.137724
8.551478
7.246733
5.453825
4.395843
5.581975
5.603433
5.473495
5.695820
6.310940
7.537603
9.883642
12.232661
13.809800
17.389655
19.592643
22.464991
23.854971
25.931597
26.837587
28.533936
26.012659
25.936961
26.274920
26.809573
25.912523
23.214817
22.517443
20.967722
22.507906
19.509792
18.079877
17.263889
16.425848
15.139580
15.497804
14.325976
15.301704
12.533665
13.508797
12.056828
11.247993
11.213422
11.354685
11.064410
10.639429
10.731816
10.894537
10.045767
9.813905
9.475946
10.741949
9.928942
11.326671
13.048649
14.779568
16.612411
19.463897
22.872686
23.104548
22.446513
24.382472
26.414990
22.264719
23.707747
22.253990
18.988848
15.640855
12.960434
11.603832
8.418560
7.446408
7.462502
7.155538
7.522702
7.552505
7.122755
6.922483
6.797910
7.668734
7.476807
##ZVALUE=225
152.229667
159.877539
197.488666
218.913555
218.786001
200.498700
169.501901
126.852989
91.218948
67.527890
46.997666
42.669773
40.438771
39.823651
38.555861
33.730865
27.424693
20.286441
16.728640
10.850430
6.510615
5.463958
4.659891
5.317926
6.177425
7.410645
8.624792
10.413527
13.461709
15.613437
18.859506
18.314719
21.640658
21.829605
23.839474
21.771789
22.621751
23.995638
23.785830
22.516847
23.480654
21.183491
19.776821
18.861890
18.785596
15.085936
16.620755
16.999841
15.803576
14.856458
13.725758
14.568567
12.942553
11.515617
12.487769
11.619925
11.066794
10.764599
10.679960
10.327697
9.270906
10.625720
10.116696
9.150505
8.760691
9.099841
10.104775
9.864569
9.329915
10.367632
12.767911
15.071630
17.245412
19.122958
21.068454
22.697449
25.060773
21.949410
22.890568
22.613406
19.178987
15.555620
13.791919
11.008978
10.512471
7.297993
8.711815
7.248521
6.580949
5.430579
5.905628
7.233620
6.681681
6.701946
6.576777
6.499887
##ZVALUE=230
107.507706
121.010542
181.751847
277.336836
338.108540
397.014618
407.724977
374.269485
315.724015
242.580771
153.701901
100.192428
67.381859
59.431791
61.186552
61.984658
58.850646
60.223937
50.058961
41.298866
31.905770
20.316839
15.615821
8.709431
7.318854
6.995797
7.942915
8.849502
11.547804
12.352467
12.621880
14.535785
14.624596
16.997457
18.326640
17.668605
19.629598
16.752481
17.986894
17.765760
18.425584
16.849637
16.484857
16.539693
15.211701
14.616847
15.486479
12.982488
12.965798
12.506843
11.293888
11.890531
11.180639
10.992885
11.021495
11.562705
12.113452
11.110902
11.724830
10.802746
9.995699
11.199713
11.346936
10.006428
9.766817
8.480549
9.869933
9.894967
9.346604
11.119843
11.468530
12.282729
14.113784
16.213655
17.778873
20.620823
17.940998
17.256737
17.443895
14.334917
13.486743
12.606978
11.551976
9.400845
8.817911
8.075833
7.465482
7.470846
6.768703
6.828904
7.241964
5.874634
6.405711
7.332563
6.849766
5.823970
##ZVALUE=235
19.978881
23.179650
42.690635
103.551745
161.344409
246.887803
313.083529
395.016670
432.188511
427.582860
387.411714
324.758887
244.481564
189.147592
142.631531
111.101866
91.732740
88.606477
89.762807
90.913773
82.458854
65.237880
52.491426
36.904812
24.974942
15.080571
11.202693
8.457899
8.071661
8.205771
8.920431
8.647442
9.520650
10.199547
10.578632
11.887550
11.274815
11.043549
11.459589
12.621880
12.115836
9.925961
10.020733
11.409521
11.357665
11.723638
12.143850
10.146499
11.144876
10.064840
9.293556
9.327531
10.242462
8.970499
10.180473
8.983612
9.623766
9.508729
8.626580
8.337498
8.887649
8.959770
8.106828
8.787513
9.024739
9.351969
8.111000
8.379817
8.783937
9.525418
10.288954
10.563731
10.929704
13.099909
13.363957
13.145804
14.636517
13.404489
11.410713
11.377931
10.180473
8.581877
8.937716
8.965731
7.890463
7.077456
7.336736
7.536411
7.107854
6.752610
6.910563
6.065965
6.094575
6.325841
6.378889
6.243587
##ZVALUE=240
1.023412
1.566410
5.612969
14.596581
34.621954
83.436966
145.081878
255.358815
348.083973
467.431545
531.415939
606.913567
584.768653
502.131581
415.312648
292.083621
215.709805
147.770643
121.362805
110.515952
115.827918
120.350718
115.115643
101.909637
82.867742
61.689615
46.674609
30.409694
18.480420
13.008714
9.165406
8.699894
7.949471
8.655787
7.866621
8.848906
8.494854
8.425713
9.343624
10.370612
10.530949
10.806918
9.773970
11.372566
10.237694
9.766817
10.042787
9.607673
9.064674
9.615421
9.369850
8.709431
9.183884
8.847713
10.164976
8.960962
8.457899
7.522702
9.282827
8.251667
8.220673
8.122921
7.888675
7.192492
8.120537
7.024407
8.335710
7.010698
7.616878
8.025765
8.021593
10.050535
9.365678
10.371804
11.273623
9.800792
10.218620
8.744597
10.041595
9.483695
8.660555
8.304715
8.695722
6.815791
7.995963
5.974770
5.633831
5.914569
5.979538
4.986525
4.882812
5.215406
5.521774
4.817843
5.518794
5.175471
##ZVALUE=245
1.460910
1.432896
1.606941
1.819730
3.629923
11.771917
26.005507
74.377656
123.400688
204.974413
345.563889
454.108715
581.699014
626.993775
600.216985
539.133549
396.989584
297.255516
257.612467
139.735937
108.905435
100.618601
112.601519
127.053857
132.211447
125.078559
112.137794
91.606975
73.166490
48.470497
37.255883
21.550655
15.452504
10.974407
8.885860
9.658933
8.674860
9.640455
10.244846
12.182593
10.839701
10.457635
10.613799
10.722876
11.275411
11.426806
9.767413
9.918809
10.430813
11.014938
9.679794
10.263920
10.057688
9.690523
9.208918
8.331537
8.655787
8.345842
8.427501
9.311438
8.777976
8.674860
8.192658
8.370876
7.997751
8.297563
8.255839
8.389950
9.208918
9.052753
9.199977
9.647608
12.121797
12.159944
13.671517
12.738705
13.060570
11.510849
11.048913
10.091662
8.533597
8.564591
8.842945
7.840991
7.589459
8.000731
6.805658
7.050633
7.208586
6.565452
7.545948
6.727576
5.992651
7.263422
7.240772
6.408691
##ZVALUE=250
1.610518
1.398921
1.362562
1.534820
1.597404
1.759529
2.354980
8.735657
20.383000
58.808923
114.613771
262.442827
434.316993
728.898644
952.115655
1015.750766
1015.750766
1015.750766
1015.750766
889.238715
653.357506
436.445475
233.403444
148.953795
114.947557
122.877955
141.791701
142.276883
136.945844
123.282671
102.903843
80.270767
63.107610
41.219592
26.663542
18.472672
15.401840
14.835596
13.412833
13.859868
14.480948
13.593435
13.880730
13.429523
13.774633
13.586879
12.457967
13.030767
12.744665
13.056993
13.187528
11.694431
11.837482
11.642575
10.353923
10.349751
10.762811
10.118484
10.177493
9.334683
9.301901
9.493828
9.196997
9.913445
9.792447
8.330941
8.505583
9.342432
9.326935
9.979606
11.198521
11.999607
12.923479
15.554428
16.481876
17.989874
16.821623
17.313957
16.479492
14.563799
14.690757
14.110804
13.830662
11.529922
10.907650
8.853674
7.280707
6.397963
6.392598
6.501675
6.668568
6.628633
6.933808
6.056428
5.834699
6.311536
##ZVALUE=255
1.117587
1.192689
1.289845
0.967979
1.281500
1.361966
1.336932
1.342893
1.865625
3.426671
15.726686
38.757920
80.021620
185.088515
313.474536
540.136695
704.274774
874.948502
935.323834
870.562792
731.343031
567.948818
337.956548
206.735730
110.573769
82.896948
88.094473
104.313493
127.137899
141.011477
148.163438
145.162940
133.203864
106.885433
86.294413
62.172413
43.491721
28.615594
21.346807
15.277863
12.906790
13.676882
13.246536
12.675524
12.501478
12.776852
12.239814
11.653900
11.031628
10.493994
10.131598
9.595752
9.045601
8.426905
8.021593
7.475615
7.265806
7.069707
6.231666
5.938411
6.257892
5.788803
5.508661
5.219579
4.726648
5.482435
5.114675
5.337000
5.523562
5.279779
5.518794
4.886985
5.781651
5.063415
5.642772
5.845428
5.104542
5.045533
5.594492
5.192757
4.995465
4.611611
4.143715
3.909469
3.499985
3.719926
3.345609
3.886819
3.441572
3.763437
3.556609
3.407598
3.133416
3.397465
3.366470
3.311634
##ZVALUE=260
0.784993
1.029968
0.937581
1.030564
0.812411
1.116991
1.088977
1.099706
1.132488
1.232624
1.507998
2.031922
5.282760
23.152828
50.757527
121.033788
204.924941
339.061618
450.984836
591.414571
662.973523
668.033957
592.108965
486.418605
327.253938
227.335691
135.611892
94.562769
75.768828
84.796548
105.490685
132.742524
151.777864
160.815716
159.873962
140.761733
120.933652
91.434717
69.314837
48.670769
34.937859
24.310946
19.416809
16.684532
15.160441
13.970733
14.604926
13.972521
12.525916
12.614727
11.908412
10.192990
9.770989
9.411573
9.672642
8.316636
8.139610
7.769465
7.326603
6.612539
6.603599
5.860925
5.272627
5.784631
5.151629
4.990697
5.242825
4.682541
4.723668
4.818439
4.909635
5.065799
5.257726
5.172491
5.343556
5.051494
4.661679
4.504919
4.172921
4.612803
3.706813
3.791451
3.535748
3.650784
3.617406
3.405809
3.421903
3.480911
3.003478
3.361702
2.950430
3.148913
3.217459
2.784729
3.034472
2.885461
##ZVALUE=265
0.680685
0.750422
0.690818
0.860691
0.826716
1.008511
0.785589
0.816584
0.835657
0.975728
1.176000
1.207590
1.128912
1.416802
3.008842
14.776587
37.430525
94.198585
165.898800
313.722491
443.977714
569.270849
694.848895
720.345974
658.607483
565.117002
421.504974
301.827788
176.555514
113.907456
80.040693
76.479912
90.375543
122.434497
144.044757
163.225532
169.966817
162.158608
147.218704
119.878650
95.281601
69.162846
50.840974
33.540726
25.516748
18.552542
17.787814
14.503598
14.421940
13.912916
13.061762
11.962652
12.005568
10.566711
9.520650
9.906888
9.216666
7.846951
7.325411
7.077456
7.020831
6.413460
6.344914
5.862713
5.658865
5.280972
5.312562
5.049706
4.775524
4.852414
5.512834
4.960895
5.101562
4.848838
4.456639
4.465580
4.325509
4.336834
3.987551
3.938675
3.900528
3.685951
3.303885
3.001690
3.258586
3.115535
3.161430
3.037453
2.689958
2.598763
2.632737
2.896786
2.895594
2.727509
2.928972
3.040433
##ZVALUE=270
0.612736
0.802875
0.651479
0.803471
0.961423
0.549555
0.545979
0.827909
0.732541
0.885725
0.784993
0.989437
0.793934
0.923872
1.141429
1.295805
1.606941
7.032752
20.456910
66.608787
130.455494
227.816701
405.683517
540.130734
691.022873
746.767521
732.880831
664.435029
521.413684
391.905904
271.704793
151.981711
95.669627
66.681504
72.223544
97.379684
119.903684
149.663687
164.607763
171.280503
165.962577
146.161914
123.661757
92.594624
70.568919
46.281815
34.047961
23.477674
18.726587
15.620589
13.901591
13.156533
11.837482
11.701584
10.073781
9.830594
8.911490
8.373857
8.009672
7.190704
6.662607
6.607771
6.367564
5.763769
5.701780
5.725622
5.082488
4.889965
4.692674
5.129576
4.840493
5.104542
4.984736
4.787445
5.257726
4.045963
3.960729
4.405975
4.020929
3.685951
3.479719
3.234744
3.585815
3.362894
2.896786
3.285408
3.067851
3.053546
2.795458
2.863407
2.746582
2.671480
2.834797
2.828836
2.597570
2.839565
##ZVALUE=275
0.603795
0.544786
0.550747
0.728965
0.717640
0.941753
0.556707
0.721812
0.673532
0.682473
0.759959
0.827909
0.697970
0.895858
1.058578
0.909567
1.168847
1.064539
1.470447
3.485680
12.116432
34.574866
100.847483
189.288855
354.544520
485.257506
639.239550
735.456944
772.164464
729.380846
605.399609
479.210615
339.369774
189.468861
116.847754
64.634681
55.708885
69.140792
91.511607
118.340850
142.245889
159.691572
164.511800
157.126784
140.483975
115.033984
93.406439
64.238906
46.230555
30.408502
21.481514
14.891624
12.249947
10.402799
9.774566
8.945465
8.006692
8.186698
8.347631
7.328987
6.977916
6.876588
6.397963
6.253719
5.622506
5.320907
5.383492
4.930496
5.053878
4.633665
4.819632
4.978776
4.842877
4.479885
4.764795
4.393458
4.314780
4.384518
4.211664
3.796816
3.459454
3.413558
2.842546
3.502965
3.129840
3.081560
3.122687
2.776980
2.865791
2.880692
2.786517
2.771616
2.638698
2.882481
2.360940
2.539754
##ZVALUE=280
0.431538
0.476837
0.487566
0.539422
0.546575
0.534654
0.607967
0.651479
0.638962
0.488758
0.710487
0.583529
0.838637
0.907779
0.730753
0.939965
0.696778
0.982881
0.877976
1.176596
1.322627
1.506805
7.681847
25.448799
78.980923
145.284534
272.122622
400.108695
576.169491
681.542754
747.676492
749.271512
680.919886
521.888733
383.238792
218.055844
135.318637
68.523884
45.845509
46.634674
61.557889
87.191463
111.674666
138.001442
152.058601
155.092478
150.531530
130.990744
112.378597
83.035827
62.795877
39.761662
27.541518
16.184449
11.299849
8.122921
7.254481
6.744862
6.971955
6.498694
5.905628
5.581975
5.568862
5.554557
5.252957
5.037785
5.267859
4.797578
5.043745
4.366636
4.340410
4.217625
4.294515
4.479885
4.302859
3.984571
3.942847
3.727674
3.695488
3.213882
3.534555
3.368855
3.338456
3.327727
3.224611
2.792478
2.920628
2.997518
2.694726
2.518892
2.757907
2.516508
2.649426
2.401471
2.348423
2.641678
##ZVALUE=285
0.471473
0.593662
0.571609
0.570416
0.434518
0.594854
0.533462
0.359416
0.380874
0.677705
0.578761
0.588894
0.763535
0.535846
0.724792
0.638962
0.700951
0.629425
0.852942
0.880957
0.995994
0.948906
1.129508
1.421571
3.766418
12.505651
44.031739
92.331767
199.656487
310.802460
478.814840
611.559749
716.738701
765.407681
723.714828
596.178770
468.555689
289.037824
181.850791
89.644790
50.482750
32.565594
36.640763
56.577921
76.666474
104.712844
122.534633
141.518712
145.497918
142.770410
131.087899
106.698871
87.629557
57.149529
39.976835
23.545623
15.422702
9.113550
6.679893
5.384684
5.329847
4.887581
4.725456
4.346967
4.515648
4.495978
4.159808
4.376769
3.970861
3.890991
4.146695
4.124641
3.977418
4.002452
4.127622
3.840923
3.539920
3.849864
3.704429
3.214478
3.223419
3.159642
3.023744
3.233552
3.017783
2.790689
3.016591
2.797842
2.833605
2.518892
2.576709
2.434850
2.456903
2.704859
2.517700
2.132654
##ZVALUE=290
0.324845
0.390410
0.378489
0.467896
0.391603
0.328422
0.473857
0.398755
0.605583
0.563860
0.574589
0.548959
0.640750
0.531673
0.573993
0.580549
0.615716
0.577569
0.625849
0.680685
0.789762
0.860691
0.899434
0.867844
0.961423
1.114607
1.722574
5.060434
23.741722
57.149529
114.692450
242.796540
371.598005
557.735562
672.947764
761.630535
756.083727
651.355982
534.112453
361.098647
239.042640
120.564699
65.780878
29.688478
23.928881
34.928918
48.997998
71.165562
91.702938
118.180513
133.278966
141.262412
139.429569
122.963786
104.716420
76.567531
57.003498
35.644770
23.715496
13.007522
8.685589
5.472898
4.580617
4.030466
3.755689
3.609657
3.753901
3.716946
3.717542
3.994703
3.897548
4.126430
3.771782
3.484488
3.649592
3.585815
3.554821
3.681779
3.347993
3.432631
2.967715
2.873540
2.783537
2.744794
2.768636
2.837777
2.841949
2.507567
2.476573
2.584457
2.541542
2.396703
2.478957
2.294779
2.403855
2.353787
##ZVALUE=295
0.269413
0.189543
0.262856
0.262856
0.318885
0.329614
0.069737
0.327826
0.288486
0.308752
0.210404
0.332594
0.455976
0.383854
0.436902
0.465512
0.402927
0.636578
0.535846
0.503659
0.391603
0.466704
0.443459
0.683665
0.803471
0.644922
0.868440
0.789762
1.047850
2.044439
8.054972
34.622550
79.263449
189.481974
308.825970
491.717458
613.422990
738.492012
764.198899
700.935721
598.792434
422.767997
296.036005
157.180429
85.680485
34.257770
20.668507
20.074844
27.525425
45.220852
62.967539
88.658929
107.526779
126.696825
133.279562
130.182505
119.157434
96.685886
77.848434
53.187609
36.349893
20.814538
13.133883
7.617474
4.926920
3.676414
3.102422
2.901554
3.334880
3.205538
3.221631
3.472567
3.294945
3.457665
3.515482
3.358722
3.213882
3.070831
2.912879
2.984405
2.477765
2.644658
2.835989
2.876520
2.628565
2.309680
2.565980
2.488494
2.429485
2.232790
2.421737
2.288818
2.302527
2.228618
2.234578
2.246499
##ZVALUE=300
0.425577
0.361800
0.491738
0.305772
0.312924
0.314713
0.380874
0.487566
0.398755
0.527501
0.479817
0.396967
0.450611
0.507832
0.406504
0.400543
0.591874
0.456572
0.574589
0.537634
0.649691
0.521541
0.635982
0.685453
0.703931
0.680685
0.736713
1.011491
0.954866
0.910759
1.200438
1.394749
5.117655
18.534660
60.948730
120.538473
246.149898
377.192497
554.781556
663.260818
746.733546
736.519694
644.374490
526.481867
346.089602
227.367878
114.311576
61.219931
23.782849
15.140772
17.250776
24.521947
41.474700
57.347417
82.217455
100.221634
120.462775
125.361681
124.061704
115.713477
95.164776
77.036619
53.500533
37.806630
21.572709
13.710856
7.549524
5.061626
3.509521
3.110766
3.169775
3.147721
3.112555
3.088713
3.061891
3.179908
3.018975
2.920628
2.714992
2.797842
3.047585
2.936721
2.731681
2.478957
2.740622
2.616644
2.352595
2.735853
2.317429
2.535582
2.420545
2.141595
2.345443
2.343655
2.365708
2.222657
##ZVALUE=305
0.380874
0.284910
0.256896
0.486970
0.369549
0.429749
0.342727
0.414848
0.340939
0.373721
0.390410
0.364780
0.519753
0.289679
0.439882
0.489950
0.360608
0.381470
0.467896
0.411868
0.520945
0.442863
0.489950
0.476837
0.590682
0.725985
0.676513
0.807643
0.776649
0.680685
0.831485
1.009703
1.019835
1.249909
2.139807
11.956692
34.006834
95.419884
175.853968
326.049924
457.413793
619.995594
714.140534
745.438933
699.819922
549.970865
428.729653
270.269513
168.684721
76.228976
38.473606
15.247464
11.637807
15.575886
22.677779
38.160682
54.315925
77.548623
94.544888
112.018585
118.581653
116.663575
108.336806
89.395642
72.030425
49.418807
34.858584
20.036697
12.710690
6.710887
4.748702
3.440976
3.190637
3.015995
2.940893
2.893806
2.766848
2.579689
2.792478
2.712607
2.588630
2.701879
2.674460
2.679825
2.582669
2.442598
2.278686
2.376437
2.330542
2.476573
2.307892
2.393723
2.425909
2.442598
2.433658
2.160668
##ZVALUE=310
0.198483
0.399947
0.447631
0.407696
0.167489
0.257492
0.457764
0.192523
0.264645
0.424981
0.437498
0.221729
0.319481
0.387430
0.314713
0.242591
0.325441
0.311732
0.388622
0.487566
0.445843
0.421405
0.513792
0.519753
0.440478
0.524521
0.640750
0.597835
0.464916
0.561476
0.269413
0.734925
0.685453
0.968575
0.825524
1.135468
1.210570
5.326867
17.278790
57.359934
114.255548
235.346556
360.332727
529.272556
643.514991
723.181963
713.324547
623.340011
514.477491
340.779424
227.312446
114.755630
61.986446
23.065805
11.462569
9.086728
12.965798
20.855665
31.067729
49.338937
67.186952
87.361932
100.954771
111.212730
111.953616
101.781487
90.058446
69.073439
51.502585
32.592416
21.694899
12.161732
7.578731
4.401803
3.358722
2.692938
2.629757
2.683997
2.589822
2.290606
2.345443
2.374649
2.312660
2.016425
2.136827
2.357960
2.437830
2.379417
2.547503
2.442598
2.310872
2.402663
2.318621
2.392530
2.253652
2.271533
##ZVALUE=315
0.230670
0.197887
0.151992
0.191927
0.255704
0.230670
0.343919
0.268817
0.190735
0.436902
0.304580
0.278950
0.331998
0.328422
0.414848
0.279546
0.283718
0.276566
0.366569
0.256896
0.275970
0.390410
0.362992
0.406504
0.351667
0.491738
0.504851
0.430942
0.591874
0.587702
0.563860
0.581741
0.680685
0.683665
0.714660
0.810623
0.931621
0.973940
1.237988
1.900792
10.790825
30.929446
88.359714
161.243677
305.861831
432.035923
582.337976
666.714907
702.654719
660.165548
534.957647
415.429473
258.754492
161.308646
74.953437
35.683513
12.783408
7.935762
8.367896
10.752678
18.837452
27.375817
44.145584
59.878826
81.179738
94.360709
103.551745
104.764700
95.527768
83.128810
62.598586
48.104525
31.938553
20.692945
11.708736
7.020831
4.143715
3.378987
2.809763
2.419949
2.316833
2.500415
2.186894
2.391934
2.329946
2.159476
2.146959
2.297759
2.411604
2.383590
2.210736
2.279878
2.356768
2.375841
2.050996
2.083778
##ZVALUE=320
0.230670
0.204444
0.188947
0.276566
0.283718
0.163913
0.246763
0.285506
0.269413
0.261664
0.360608
0.287890
0.426769
0.406504
0.337958
0.399947
0.244975
0.430942
0.303984
0.198483
0.463724
0.513792
0.384450
0.406504
0.478625
0.455976
0.348687
0.516772
0.326633
0.412464
0.678897
0.363588
0.478625
0.584722
0.576973
0.527501
0.721812
0.714660
0.688434
0.747442
0.840425
1.309514
3.855824
20.264983
51.411986
133.385658
220.068693
366.430879
484.619737
617.776513
675.400496
663.117766
596.991777
456.591845
334.289670
187.727809
106.291771
46.235919
21.652579
8.313656
6.362796
7.545948
9.717941
16.030669
24.829507
41.726828
56.001544
74.564815
88.149905
98.044872
98.519921
91.901422
81.100464
61.835647
46.759844
29.468536
19.667745
11.154413
7.035732
3.996491
2.978444
2.519488
2.392530
2.382994
2.112985
2.187490
2.115965
2.057552
1.989603
2.148747
1.977682
2.091527
2.136827
2.108812
2.030730
2.155900
##ZVALUE=325
0.253916
0.385642
0.337958
0.148416
0.236630
0.251532
0.228882
0.299811
0.221729
0.343919
0.254512
0.300407
0.253916
0.363588
0.309944
0.349879
0.325441
0.343919
0.327826
0.257492
0.478625
0.589490
0.222921
0.255704
0.235438
0.341535
0.292659
0.484586
0.290871
0.436902
0.567436
0.565648
0.355840
0.419617
0.488758
0.568628
0.513792
0.652671
0.564456
0.667572
0.711679
0.823736
0.894666
1.183748
2.166629
12.760758
33.792853
89.234710
160.355568
299.293995
413.898826
559.454560
635.195971
658.217669
613.041520
481.604934
365.342498
222.605467
134.814978
60.019493
29.635429
10.661483
6.325841
6.039739
6.699562
9.870529
14.896989
25.194883
37.060976
56.105852
69.561601
83.042979
90.636611
91.068745
85.582733
70.877671
57.754517
40.645599
28.849840
16.702414
10.741949
5.486608
3.990531
3.063679
2.610683
2.309680
2.085567
2.123713
2.059937
1.984835
1.775622
2.131462
1.872778
2.030730
1.981854
2.088547
##ZVALUE=330
0.247955
0.139475
0.354648
0.255704
0.355840
0.293851
0.364780
0.380874
0.347495
0.356436
0.308752
0.172853
0.209808
0.283718
0.201464
0.102520
0.189543
0.338554
0.477433
0.304580
0.337958
0.400543
0.330806
0.292659
0.349879
0.415444
0.381470
0.411868
0.395775
0.423789
0.490546
0.520945
0.531673
0.449419
0.543594
0.459552
0.438690
0.539422
0.714660
0.505447
0.619888
0.739694
0.792742
0.847578
0.732541
0.928640
1.244545
5.604625
17.956495
59.052706
113.453865
228.279829
336.052775
486.799479
577.991605
636.879802
617.902875
524.458885
417.027473
270.493627
173.911452
81.446767
41.566491
15.710592
7.484555
5.352497
4.963875
5.909801
8.557439
14.812946
22.551417
35.793781
61.489940
65.968633
77.995658
84.682703
85.283518
79.007745
66.896677
53.890944
37.856698
26.609898
16.770959
10.992885
6.066561
4.299879
3.037453
2.526641
2.172589
2.166629
1.993775
1.921654
1.890659
1.893640
1.903772
1.973510
##ZVALUE=335
0.436902
0.249743
0.278950
0.302792
0.402927
0.486970
0.246763
0.347495
0.189543
0.232458
0.304580
0.336766
0.363588
0.251532
0.187755
0.252724
0.337958
0.252724
0.384450
0.308752
0.364780
0.512600
0.471473
0.549555
0.382662
0.381470
0.391603
0.369549
0.435710
0.379682
0.319481
0.342727
0.366569
0.550747
0.426769
0.331998
0.451803
0.619888
0.646710
0.423789
0.478625
0.630617
0.771880
0.693798
0.830889
0.937581
0.816584
1.044869
0.965595
2.583861
8.998513
36.078691
74.782968
166.915655
266.678929
420.706868
526.506901
610.496998
616.895556
549.152493
457.595587
310.406685
212.304592
110.527873
57.621002
20.556450
9.763837
5.464554
4.916787
4.702806
5.553961
8.096695
12.400746
22.338629
32.445788
48.182607
60.082674
73.197484
79.442859
79.213977
73.711872
62.597990
51.883459
38.349628
28.071404
17.387867
11.349916
6.532669
4.470944
3.067851
2.382994
2.079606
2.049804
1.958609
1.810789
1.909733
##ZVALUE=340
0.190735
0.190735
0.099540
0.221729
-0.030994
0.077486
0.188947
0.070930
0.252724
0.223517
0.303984
0.204444
0.177622
0.292659
0.267625
0.284910
0.304580
0.245571
0.197887
0.153780
0.208616
0.119805
0.171661
0.255704
0.242591
0.293851
0.335574
0.363588
0.269413
0.401735
0.270605
0.324845
0.296831
0.302792
0.433922
0.253916
0.474453
0.213981
0.463724
0.304580
0.559688
0.453591
0.365973
0.390410
0.544786
0.684857
0.523925
0.670552
0.627637
0.822544
0.787973
1.452565
4.153848
21.396875
52.525997
128.967762
218.300819
357.762575
464.106798
564.909577
597.736835
561.495423
490.038991
361.183882
252.506733
131.847858
73.814988
30.107498
13.010502
5.837679
5.047917
4.444718
4.538894
5.639791
7.631779
13.134480
20.218492
31.299591
43.789744
58.099627
67.741871
75.055957
74.524879
70.062876
62.550902
48.345923
37.865639
25.389791
18.183589
11.028647
6.958842
3.905892
2.841949
2.318621
2.022982
2.039671
##ZVALUE=345
0.056624
0.171661
0.245571
0.188947
0.271797
0.320673
0.260472
0.280738
0.166893
0.120997
0.193715
0.137687
-0.027418
0.022650
0.156760
0.148416
0.299811
0.217557
0.345707
0.267625
0.248551
0.319481
0.252724
0.308752
0.344515
0.185966
0.408888
0.277758
0.185966
0.160933
0.343919
0.299811
0.199676
0.253916
0.219941
0.278950
0.439882
0.296831
0.265837
0.415444
0.402927
0.284910
0.381470
0.406504
0.421405
0.525713
0.463724
0.693798
0.551939
0.506639
0.606775
0.653863
0.724792
0.849962
1.831651
11.975765
33.121705
87.204576
155.357718
282.309651
386.323929
509.947538
569.371581
574.073792
524.185896
407.381654
299.919844
169.584751
96.830726
40.723681
18.835664
7.330775
4.881620
4.353523
4.274845
4.163980
4.864931
6.979704
10.808706
18.441677
27.376413
40.622950
50.400496
62.111616
67.309737
69.522858
66.746473
57.487488
48.683882
36.747456
26.840568
16.815662
11.276603
6.677508
4.421473
2.916455
##ZVALUE=350
0.211596
0.209808
0.139475
0.061989
0.243783
0.160933
0.238419
0.013709
0.158548
0.266433
0.258684
0.215769
0.161529
0.200868
0.239611
0.201464
0.118613
0.247955
0.259876
0.311732
0.183582
0.178814
0.318885
0.200868
0.211596
0.270605
0.418425
0.205636
0.234842
0.227690
0.338554
0.292659
0.206828
0.333786
0.326633
0.452995
0.210404
0.287890
0.371933
0.362992
0.289679
0.440478
0.304580
0.463724
0.391603
0.530481
0.397563
0.472665
0.682473
0.628829
0.453591
0.429749
0.696778
0.659823
0.726581
0.726581
1.114607
6.211996
18.943548
58.905482
111.141801
221.482515
319.160819
445.539951
520.995855
560.807586
528.521538
436.334610
333.328843
199.458003
122.524500
55.617690
26.463866
8.539557
5.114675
4.050732
3.914833
3.679991
3.666878
4.353523
6.300807
10.699630
15.951991
24.896860
33.320785
45.058727
54.492950
61.059594
63.846707
59.836507
55.187941
44.428706
35.459995
24.022460
17.395616
10.487437
##ZVALUE=355
0.191927
0.265837
0.108480
0.116825
0.139475
0.209808
0.189543
0.172853
0.098944
0.248551
0.228882
0.227690
0.347495
0.234842
0.196695
0.183582
0.270605
0.196695
0.082850
0.250936
0.256896
0.124574
0.245571
0.280738
0.433922
0.365973
0.250936
0.209808
0.250936
0.275970
0.283718
0.264645
0.235438
0.219941
0.361800
0.348687
0.368953
0.519753
0.388622
0.360608
0.306964
0.287890
0.278950
0.498891
0.349879
0.403523
0.297427
0.387430
0.344515
0.450611
0.571609
0.483990
0.408888
0.529885
0.378489
0.722408
0.749826
0.735521
0.854731
2.665520
10.254979
38.758516
77.221990
163.902640
255.957842
388.226509
470.625758
529.616475
525.336862
447.624922
360.655785
236.729980
150.917768
67.230463
33.529997
11.035800
5.709529
4.022717
3.705621
3.454685
3.204942
3.469586
4.011989
5.642772
8.083582
13.701916
20.155907
30.209422
38.682818
47.388673
53.348541
56.511760
55.084825
48.994422
42.235851
32.893419
##ZVALUE=360
0.198483
0.193715
0.088811
0.147820
0.201464
0.264645
0.227690
0.310540
0.349879
0.180602
0.169873
0.170469
0.179410
0.262856
0.226498
0.129938
0.214577
0.224710
0.190735
0.161529
0.098944
0.241995
0.261664
0.238419
0.235438
0.300407
0.299811
0.294447
0.338554
0.178814
0.378489
0.434518
0.355840
0.295639
0.204444
0.238419
0.434518
0.303984
0.375509
0.311732
0.258684
0.289679
0.267625
0.412464
0.497699
0.355840
0.357628
0.403523
0.458956
0.237823
0.329614
0.528693
0.368953
0.444651
0.357628
0.487566
0.544786
0.575781
0.651479
0.639558
0.855923
1.098514
4.955530
16.182661
53.136945
103.032589
203.104615
299.786925
428.908467
497.891903
518.641472
483.037829
385.632515
291.043520
172.520876
103.130937
44.016838
19.924641
6.802678
4.301667
3.755689
3.476739
3.194809
3.049970
3.178716
3.236532
4.475713
6.560683
11.032820
16.061664
24.547577
32.024980
41.456819
47.637820
51.271915
51.580667
##ZVALUE=365
0.089407
-0.022650
0.086427
0.068545
0.001788
-0.024438
0.113845
0.137687
0.045896
-0.038743
-0.022650
0.058413
-0.052452
0.009537
-0.099540
-0.014901
-0.025630
-0.092983
-0.043511
0.181794
0.079870
0.126958
0.138879
0.127554
-0.050664
-0.027418
0.036955
0.347495
0.048876
0.335574
0.203848
0.075698
0.103712
0.145435
0.133514
0.112653
0.063777
0.084639
0.232458
0.080466
0.118613
0.128746
0.307560
0.215769
0.167489
0.111461
0.020862
0.158548
0.260472
0.231862
0.150800
0.262856
0.191927
0.274777
0.382662
0.435710
0.421405
0.241995
0.393987
0.372529
0.586510
0.453591
0.752807
0.810623
1.697540
10.637641
28.270483
76.628923
141.472816
259.999633
351.392627
449.253917
495.111942
478.972793
420.635939
306.850672
216.636658
119.277835
64.835548
24.144650
10.024905
4.239678
3.532767
3.357530
3.072619
2.724528
2.563596
2.706647
2.590418
3.304482
5.138516
9.160638
13.131499
20.886660
27.661920
36.570430
##ZVALUE=370
0.153780
0.148416
0.197887
0.117421
0.213981
0.272989
0.174642
0.217557
0.144839
0.073910
0.232458
0.064969
0.083447
0.070930
0.228882
0.164509
0.123978
0.124574
0.075698
0.139475
0.116825
0.247955
0.286698
0.206828
0.191927
0.250936
0.202656
0.364780
0.279546
0.061989
0.238419
0.168681
0.249743
0.206828
0.166893
0.441670
0.263453
0.274777
0.263453
0.036955
0.403523
0.246763
0.240803
0.236630
0.168681
0.311732
0.412464
0.233650
0.290871
0.351667
0.401735
0.363588
0.453591
0.195503
0.433922
0.381470
0.431538
0.349879
0.527501
0.353456
0.540614
0.494719
0.512600
0.598431
0.642538
0.862479
1.049638
5.409718
17.531514
57.299733
106.491446
201.072693
292.994976
412.718654
471.726656
483.267903
440.544486
343.526602
252.578855
140.735507
79.062581
31.638741
15.440583
5.841851
3.744960
3.200769
3.033876
2.753735
2.544522
2.304912
2.358556
2.556443
3.130436
4.771948
7.433891
12.186766
##ZVALUE=375
0.050664
0.162721
0.140667
0.154972
0.288486
0.161529
0.056624
0.230670
0.091791
0.072718
0.207424
0.064969
0.057817
0.171661
0.111461
0.060797
0.215769
0.182986
0.187755
0.089407
0.113845
0.208616
0.311732
0.209808
0.271797
0.356436
0.327826
0.128746
0.262856
0.397563
0.321865
0.164509
0.069737
0.177622
0.527501
0.414848
0.258684
0.401735
0.354648
0.305772
0.248551
0.327826
0.161529
0.331998
0.359416
0.252724
0.393987
0.217557
0.226498
0.328422
0.263453
0.271797
0.222921
0.409484
0.431538
0.256896
0.326633
0.344515
0.377893
0.470877
0.446439
0.352859
0.415444
0.484586
0.569820
0.455976
0.607967
0.695586
0.694990
2.753735
9.485483
33.481717
72.693825
162.089467
249.207616
369.000435
441.355705
481.801629
466.361642
383.188725
298.073888
181.634426
115.355849
57.995915
28.987527
9.674430
4.792809
3.151894
2.924800
2.625585
2.458692
2.472997
2.160668
2.041459
2.202988
2.534986
##ZVALUE=380
0.129938
0.068545
0.101924
0.081658
0.208616
0.164509
0.049472
0.187755
0.129938
0.180602
0.094771
0.158548
0.010729
0.140667
0.154972
0.182986
0.151992
0.065565
0.111461
0.260472
0.212789
0.160933
0.352859
0.254512
0.085831
0.321865
0.245571
0.200868
0.117421
0.233650
0.405908
0.374913
0.355840
0.415444
0.430942
0.386834
0.389814
0.520945
0.412464
0.540614
0.389814
0.449419
0.546575
0.436902
0.453591
0.402927
0.300407
0.321865
0.298619
0.328422
0.412464
0.402927
0.430942
0.354648
0.458956
0.385642
0.404716
0.396967
0.320673
0.384450
0.414848
0.375509
0.428557
0.218749
0.578761
0.432730
0.415444
0.373721
0.548959
0.706911
0.788569
1.393557
4.980564
23.763776
54.235458
126.771927
205.568671
320.055485
401.124954
465.994477
468.005538
403.627753
333.563685
231.814981
153.839588
76.406002
39.273500
14.473796
6.554723
3.336668
2.835989
2.575517
2.358556
2.308488
2.130866
2.234578
##ZVALUE=385
0.028610
0.019670
0.287890
0.110865
0.199676
0.152588
0.162721
0.063777
0.219941
0.038743
0.057817
0.087619
0.188947
0.165701
0.054836
0.023842
0.304580
0.166893
0.371933
0.284910
-0.028610
0.197887
0.106692
0.268817
0.205636
0.184774
0.170469
0.295639
0.462532
0.507832
0.559688
0.471473
0.626445
0.746846
0.694990
0.665784
0.749826
0.673532
0.658631
0.582933
0.687838
0.560880
0.600815
0.606775
0.596642
0.595450
0.458956
0.515580
0.449419
0.411868
0.517964
0.352859
0.674725
0.221729
0.353456
0.304580
0.358820
0.370741
0.302792
0.294447
0.361800
0.352859
0.377893
0.388622
0.303984
0.360608
0.347495
0.300407
0.540614
0.574589
0.704527
0.669956
0.664592
0.787973
2.290606
12.953877
33.766627
84.801912
151.170492
263.819695
349.044800
434.927940
456.714630
429.866910
376.804471
274.086595
193.895698
105.934739
60.502887
25.106668
10.784864
3.986955
2.816916
2.645850
2.478957
2.365708
##ZVALUE=390
0.112653
0.165701
0.082850
0.125766
0.007749
0.142455
0.105500
0.158548
0.159740
0.150800
0.118613
0.175834
0.214577
0.017881
0.076890
0.034571
0.127554
0.162721
0.229478
0.087619
0.204444
0.167489
0.035763
0.216961
0.257492
0.451803
0.380874
0.436902
0.647902
0.685453
0.922680
1.016855
1.018643
1.133680
0.898838
0.898838
1.125932
0.986457
1.103878
1.020432
0.889897
0.953674
0.840425
0.920892
0.946522
0.794530
0.707507
0.550747
0.577569
0.461936
0.489950
0.646710
0.529885
0.444651
0.484586
0.411868
0.373721
0.369549
0.390410
0.289679
0.385642
0.339746
0.285506
0.316501
0.312924
0.284910
0.417829
0.399947
0.534654
0.640750
0.595450
0.472665
0.623465
0.644922
0.625849
0.777841
1.322627
7.176995
20.786524
62.633753
117.665529
220.794678
303.370953
399.044752
444.460511
451.820493
413.492918
323.842764
245.934725
150.751472
86.725950
35.888553
16.773939
5.860925
3.262758
2.599955
##ZVALUE=395
0.228882
0.230670
0.141859
0.271797
0.273585
0.117421
0.194907
0.214577
0.049472
0.126958
0.269413
0.350475
0.260472
0.186563
0.207424
0.208616
0.129938
0.273585
0.152588
0.111461
0.164509
0.109673
0.323653
0.111461
0.313520
0.440478
0.436902
0.554919
0.738502
0.924468
1.076460
1.125932
1.301765
1.417994
1.412630
1.705885
1.450777
1.372695
1.470447
1.250505
1.243949
1.180768
1.263618
1.094937
1.107454
0.890493
0.892878
0.927448
0.914931
0.718832
0.621676
0.568628
0.612736
0.494719
0.467896
0.367761
0.466704
0.534654
0.461936
0.523925
0.458956
0.398755
0.389814
0.363588
0.526905
0.365973
0.392795
0.430942
0.512600
0.666976
0.473857
0.536442
0.520945
0.614524
0.585914
0.629425
0.703931
0.684857
0.871420
3.833771
13.666749
47.109723
89.306831
168.584585
248.565674
361.956954
427.120924
464.537740
449.521542
379.765630
296.411514
184.412599
114.100575
50.673485
24.093986
8.356571
##ZVALUE=400
0.380874
0.216961
0.190735
0.086427
0.157952
0.168681
0.103712
0.122786
0.091791
0.115633
0.208616
0.199676
0.316501
0.084639
0.167489
0.305772
0.155568
0.250936
0.182986
0.065565
0.059605
0.175834
0.050664
0.078678
0.158548
0.294447
0.376701
0.604987
0.700951
0.819564
1.073480
1.161695
1.273751
1.323819
1.269579
1.473427
1.475811
1.422763
1.527667
1.406670
1.411438
1.009703
1.019835
1.196861
0.981688
0.931621
0.978708
0.812411
0.766516
0.790954
0.759959
0.640750
0.471473
0.531673
0.502467
0.518560
0.280738
0.409484
0.360608
0.546575
0.464916
0.505447
0.395775
0.387430
0.457764
0.636578
0.432730
0.399947
0.594854
0.431538
0.469685
0.538826
0.438690
0.285506
0.473857
0.470877
0.493526
0.466704
0.752807
0.721812
0.749826
1.617670
7.962584
22.097826
64.274669
117.537975
217.704773
299.582481
399.111509
444.278717
450.742841
407.740474
313.025713
230.011940
131.202936
79.114437
##END
