##TITLE=FDDW02
##FORMAT=SPECTACLE-ASCII V-1.2
##DATA TYPE=ULTRAVIOLET SPECTRUM
##SECOND TYPE=ULTRAVIOLET SPECTRUM
##DATE=03/01/18
##TIME=13:14:17
##SPECTROMETER/DATA SYSTEM=SPECTACLE
##XUNITS=NM EM
##YUNITS=ENERGY
##YFACTOR=1
##FIRSTX=220
##LASTX=410
##NPOINTS=96
##3DDATA=Equidistant
##ZUNITS=NM EX
##FIRSTZ=210
##LASTZ=400
##ZPOINTS=39
##XYDATA=(Y..Y)
##ZVALUE=210
20.539761
18.236637
14.890432
13.799667
10.305643
10.324717
9.003878
8.469820
7.437468
6.288886
4.185438
3.401637
2.745986
3.042817
2.550483
3.047585
2.907515
3.141761
3.725886
3.965497
3.867745
4.065633
5.105734
5.435944
6.831884
10.528564
12.961626
15.445948
19.567609
24.640560
26.450753
31.027794
33.378601
35.862923
39.007664
40.432811
39.172769
39.230585
36.482811
37.424564
33.912659
34.305453
31.302571
29.903650
29.023886
28.252602
25.082827
25.855899
23.272634
22.110939
21.381974
20.780563
18.791556
18.786788
18.199682
17.210841
16.893744
15.553832
16.199946
13.883710
15.256405
13.885498
12.972951
13.096929
13.251901
13.823509
13.024807
14.157891
14.677644
18.291473
20.340681
21.093488
24.613738
27.911663
30.798912
33.809543
34.738779
37.286878
36.776662
39.092898
35.896897
32.309890
27.803779
25.032759
18.964410
15.284419
11.705756
11.827946
11.471510
13.638735
17.510653
23.568869
27.314425
34.946799
41.297674
52.326918
##ZVALUE=215
59.129000
60.400963
48.387647
34.909844
27.147532
19.312501
17.447472
15.625954
15.942454
15.111566
12.799501
10.211468
7.511973
6.337762
4.120469
4.516840
3.147721
3.880858
3.647804
3.890991
4.216433
4.527569
5.365610
6.811619
6.672740
10.571480
14.919639
18.569827
22.290945
29.008985
33.041835
36.205649
40.600896
42.201877
47.511458
46.960711
45.370460
45.001507
46.434999
43.852925
41.287541
42.894483
39.282441
36.512613
34.043789
32.769442
29.476881
28.310418
27.398467
26.258826
27.354956
23.636818
24.058819
21.349788
21.881461
20.363927
21.038651
17.966628
18.209815
18.243790
16.665459
18.109679
16.347766
16.150475
17.027855
16.187429
17.194748
17.642975
19.314885
21.518469
23.288727
26.340485
29.216409
34.728646
37.457943
39.632916
38.211942
41.201711
43.775439
43.997765
40.369630
36.482811
33.197999
26.090741
22.318959
18.098950
15.040636
13.100505
11.476874
10.986924
10.524988
10.704994
9.661913
14.399886
16.845465
23.472905
##ZVALUE=220
159.769654
162.629485
155.100822
134.747624
102.645755
72.994828
52.407980
35.416484
28.635859
24.937987
26.745796
25.611520
21.719933
20.092726
15.977621
11.867881
8.888841
6.386638
5.400777
5.286932
5.691648
6.007552
6.520748
7.271767
8.879900
14.010668
14.874935
20.097494
23.760796
29.994845
37.385821
42.580962
46.630502
49.204826
52.104592
54.388642
53.165555
51.857829
54.554939
51.763654
51.873922
46.245456
45.579672
39.823651
39.720535
37.578940
38.027763
34.508705
31.065941
29.814839
28.896928
28.722882
26.061535
23.336411
23.947954
25.081635
22.803545
20.355582
20.716786
19.718409
20.066500
17.467737
18.938780
16.968846
17.040968
16.272664
17.167926
16.405582
17.895699
20.358562
21.822453
27.102828
28.230548
33.971667
35.324693
38.699508
38.710833
42.747855
42.290688
40.959716
40.352941
36.887527
32.756925
26.774406
22.880435
18.620491
15.849471
13.978481
12.202859
10.479689
9.961724
9.453893
9.642839
10.196567
10.913610
10.078549
##ZVALUE=225
199.898481
207.411647
241.796970
272.951722
265.790820
238.540769
203.776956
146.424770
99.671483
71.485639
48.919916
40.111542
40.497780
43.782592
38.125515
33.733845
26.580691
22.017956
16.976595
10.746717
9.554625
6.593466
7.374883
7.676482
8.646846
10.938644
14.391541
19.109845
22.932887
28.802752
31.406879
38.206577
39.496422
43.363571
47.214627
48.647523
45.875907
48.774481
47.336817
45.432448
44.219494
39.006472
38.357973
39.547682
35.254955
33.779740
31.443834
28.694868
28.435588
25.702715
25.536418
23.106933
23.159981
23.305416
20.239949
20.153522
16.532540
18.183589
18.236637
17.182827
17.533898
15.873909
16.320944
14.769435
14.033914
14.201999
13.649464
15.870929
14.789701
15.537739
16.774535
19.973516
21.599531
26.395917
27.273893
32.320619
30.265450
32.119751
30.182600
26.489496
26.900768
24.437904
21.079779
18.147826
16.517639
12.864470
10.732412
10.849833
9.333491
8.710623
9.792447
9.517670
8.801818
8.744597
9.389520
9.302497
##ZVALUE=230
121.809840
133.966804
202.462673
322.646499
404.314995
474.545956
498.033762
464.684963
401.159525
315.240622
189.063549
120.576620
74.100494
63.079596
60.958862
60.369968
64.235926
59.862733
53.126812
43.513775
31.431913
21.784902
16.605854
10.653734
10.014772
10.577440
12.771487
14.209747
17.020702
18.999577
22.441745
23.847818
25.459528
28.626919
30.711889
29.765964
32.534599
32.277703
32.719970
32.817721
31.154752
32.167435
30.968785
28.400421
30.658841
26.250482
26.505589
24.522543
23.084879
21.941662
21.410584
21.062493
18.830895
19.077659
19.291639
18.946528
18.167496
17.474890
18.308759
17.871857
16.373992
14.951825
16.045570
16.204715
14.575720
15.174747
14.038682
16.325712
15.482903
16.244650
19.780993
20.455718
22.094846
25.604963
26.522875
28.920770
30.253530
32.768846
31.411648
29.414892
28.506517
26.929975
22.880435
19.541979
15.691519
14.341474
12.475848
11.972785
10.640621
10.637641
10.147691
10.235906
9.658933
9.364486
8.949637
11.025667
##ZVALUE=235
30.681491
40.705800
85.726976
217.363834
357.171893
549.917817
699.325800
875.725746
936.116576
888.567567
765.766501
551.096797
388.258696
221.642852
148.292780
108.949542
86.064935
90.913773
95.676780
94.783902
85.094571
73.689818
53.958893
41.160583
28.637648
19.454956
16.612411
14.226437
13.205409
14.478564
14.757514
15.670657
17.937422
19.705892
18.529892
21.686554
20.212531
20.723939
19.255877
21.644831
20.379424
19.691586
21.799803
19.921660
20.112991
19.778609
18.272996
20.217896
19.376874
20.233989
18.647909
18.373728
17.421842
18.362999
18.362999
19.209981
16.621947
15.101433
17.068982
15.177727
15.921593
17.059445
16.163588
14.747977
14.731884
15.751719
15.161633
16.540885
18.077493
20.088553
22.872686
25.298595
27.696490
29.823780
32.196641
33.592582
33.425689
31.932592
33.762455
30.627847
30.521750
25.074482
21.641850
19.782782
17.743707
16.675591
13.684630
12.498498
12.330413
12.062788
11.862516
11.957884
10.465980
10.915995
10.585785
10.573864
##ZVALUE=240
3.320575
3.703833
9.303689
39.045811
98.675489
237.740874
403.264761
699.490905
931.344628
1015.750766
1015.750766
1015.750766
1015.750766
902.828574
637.300014
440.760851
262.550712
185.266733
142.778754
117.939711
118.138790
126.551986
119.226575
107.613802
89.703798
65.179467
51.715970
34.829974
27.543902
19.734502
14.806986
14.481544
14.552474
14.872551
17.158985
17.809868
16.658902
16.193986
17.211437
17.753839
17.931461
17.674565
17.011762
16.831756
17.758608
19.861460
18.926859
18.792748
17.814636
17.358661
16.033649
16.382933
16.848445
16.295910
16.962886
15.640855
15.443563
16.099811
15.897751
13.791919
14.259815
14.815927
14.788508
13.870597
15.442967
14.010668
13.411641
14.870763
15.690923
16.354918
16.477704
17.873645
18.681884
20.462871
22.200942
22.927523
21.920800
22.493601
20.887852
18.242598
19.153953
15.201569
15.374422
13.386607
13.498664
12.329817
11.168718
10.243654
9.912848
8.724928
9.524822
8.113980
9.731650
8.392930
8.127689
8.374453
##ZVALUE=245
1.785755
1.684427
1.532435
2.425909
5.410910
14.390945
51.943660
111.640692
269.116759
442.963839
760.231018
989.186764
1015.776992
1015.776992
1015.776992
1012.231708
827.152729
539.530516
360.168815
196.114779
130.845904
108.851790
120.916963
132.603645
132.022500
129.864812
116.275549
98.863840
76.377988
57.755709
39.105415
29.079914
22.617579
18.947721
16.873479
18.203855
17.275810
17.691851
18.624663
17.731786
20.269752
18.891692
19.195676
17.143488
18.847585
19.257665
17.138720
16.800761
17.513633
17.759800
18.369555
16.865730
17.198920
16.346574
16.044974
16.227961
15.890598
14.393926
15.687943
14.413595
15.134811
15.555620
16.139746
15.535951
15.666485
14.611483
15.653968
15.350580
17.361641
17.321706
19.122958
21.826625
24.276972
26.237965
28.678775
30.460954
28.987527
28.780699
27.737617
27.822852
23.273826
24.020672
19.517541
18.475652
17.338991
15.642643
13.075471
12.779832
13.181567
11.809468
11.384487
11.724830
11.797547
12.103915
11.662841
11.957884
##ZVALUE=250
2.099872
2.223849
2.619624
2.282858
2.907515
2.834797
26.146770
31.003952
87.819695
237.602592
440.282822
1015.750766
1015.750766
1015.750766
1015.750766
1015.750766
1015.750766
1015.750766
1015.750766
1015.750766
958.523750
270.441771
231.981874
134.176612
120.327473
132.226944
142.092705
145.803690
144.831538
117.542744
112.823844
77.895522
62.930584
51.166415
37.441850
32.052994
27.358532
26.463866
26.606917
25.810599
26.537776
26.770830
26.703477
25.861859
25.270581
25.281906
24.712682
25.593638
23.747683
22.772551
22.956729
22.689700
22.352934
20.845532
21.439791
20.187497
19.988418
18.975735
18.774867
18.720627
19.375682
19.378662
18.296838
18.435717
17.408729
17.142892
17.873645
18.791556
18.331409
21.514893
23.062825
28.135777
28.775930
34.584999
34.926534
36.331415
36.343932
36.554933
35.804510
29.380918
27.867556
25.608540
21.711588
18.927455
16.379952
14.217496
13.552904
12.742877
11.381507
11.291504
11.840463
10.580420
10.700822
10.652542
10.035634
10.525584
##ZVALUE=255
1.655817
1.588464
1.455545
2.084970
1.894832
1.989603
1.806617
2.691746
2.422929
4.698634
30.264854
84.166527
178.335905
384.013653
600.049496
965.561867
1015.750766
1015.750766
1015.750766
1015.750766
1015.750766
949.409604
596.531630
376.829505
184.186697
118.844509
96.407533
111.432672
138.725638
152.724981
159.559846
159.862638
150.678754
122.884512
102.513433
74.692965
57.059526
43.132901
35.299659
30.738711
27.634501
27.821660
26.654601
25.814772
24.494529
22.188425
22.679567
21.228790
21.665692
19.698739
19.430518
17.708540
18.694997
16.469955
16.262531
14.914870
15.808940
13.729930
13.958812
12.759566
12.013912
10.905862
11.053681
10.626912
10.696650
9.459853
10.270476
8.945465
8.123517
8.762479
9.501576
9.479523
9.222627
9.049773
8.892417
10.001659
9.348989
8.710623
9.180903
8.404851
8.158684
7.571578
6.653666
6.133914
5.867481
5.451441
5.701780
4.930496
4.787445
4.989505
4.908442
4.721880
4.641414
4.698634
4.438758
4.645586
##ZVALUE=260
0.933409
0.905991
0.914931
1.037717
0.816584
0.900626
0.971556
1.226664
1.100898
1.504421
1.641512
1.785755
5.961657
26.360750
59.872866
146.758556
249.702930
414.835811
554.098487
724.576712
796.994567
811.966658
703.206658
578.234792
380.016565
262.326002
154.592991
105.098486
85.882545
94.132423
112.716556
146.903992
166.578889
177.325606
179.869533
157.656670
140.408874
109.459758
87.311864
65.455437
51.108599
39.836764
34.017563
30.137897
30.127764
27.627945
26.842952
25.243759
23.273826
22.248626
21.455884
20.594001
19.711852
17.902851
17.642975
16.019940
14.691949
15.029907
13.180971
12.515783
12.802482
10.500550
11.035800
10.383725
10.182858
9.096861
9.238720
8.653998
8.103848
8.068681
7.913709
7.342696
7.765889
7.369518
6.908774
6.633997
6.071925
6.678700
6.114841
5.232692
4.739761
4.719496
4.476905
4.406571
4.248619
4.282594
4.332662
4.141927
3.731847
3.665686
3.750920
3.390908
3.978610
3.210902
3.467798
3.513694
##ZVALUE=265
0.849962
0.963807
0.935793
0.877976
0.859499
0.887513
0.831485
0.998974
1.060963
1.039505
1.161695
1.466870
1.483560
1.608729
3.190637
16.071796
38.696527
96.471906
175.419450
333.855748
474.925637
611.387491
733.717680
767.280459
694.050789
591.684580
440.227985
312.312841
181.722641
122.102499
93.077421
90.172887
105.882883
141.697526
164.092779
187.672973
192.371607
183.894634
171.528459
141.106844
118.946433
87.610483
70.254803
51.707625
44.192672
35.052896
33.249855
30.654669
28.484464
27.484894
24.706721
22.831559
22.256970
20.408630
18.741488
17.775893
16.176701
15.712976
15.276670
14.054775
13.079643
12.441874
11.291504
11.034608
10.621548
9.612441
9.431839
9.344816
9.347796
8.664727
8.776784
9.078979
9.285808
9.718537
8.832812
8.700490
8.388758
7.857680
8.226633
7.104874
7.277727
6.332994
5.851984
4.861951
5.025864
4.934669
5.209446
4.603863
4.335642
4.411936
4.395843
4.063845
4.233718
4.385710
3.824830
4.108548
##ZVALUE=270
0.837445
1.006722
0.612736
1.009703
0.844598
1.042485
0.844598
0.904799
0.934601
1.063943
0.875592
1.074672
1.220703
1.257658
1.403689
1.563430
2.261996
7.911921
24.199486
74.578524
163.686872
401.256680
667.127967
938.767791
1015.750766
1015.750766
1015.750766
1001.445651
721.032023
510.246754
289.960504
180.431008
106.884837
86.966753
96.764565
116.261840
150.194764
171.904564
189.671516
192.156434
185.434818
173.375607
143.874884
116.668940
86.845756
67.840815
48.425794
40.182471
31.832457
28.013587
25.882721
23.878813
22.332668
21.065474
18.824935
18.004775
16.259551
15.223622
13.865829
14.404655
13.051629
12.055635
11.766553
10.567904
9.789467
9.522438
9.376407
8.551478
8.379817
8.698702
8.350611
9.024739
9.084940
8.100867
8.192658
8.500814
8.267760
7.836819
7.505417
6.750822
6.081462
5.934834
5.527735
5.043745
4.892945
4.042983
4.042983
4.503727
3.842711
4.314780
3.630519
3.538728
3.408790
3.425479
3.168583
3.166795
##ZVALUE=275
0.622869
0.574589
0.626445
0.810623
0.773668
0.697970
0.711679
0.729561
0.616908
0.801682
0.876784
0.717640
0.945926
0.845790
1.187921
1.172423
1.260638
1.168847
1.774430
3.307462
12.726784
37.128925
107.468367
210.693479
409.926772
566.788912
742.671490
839.186907
865.384936
796.642900
690.888762
496.888757
350.228548
198.280811
128.337741
80.882907
72.630644
87.090731
104.900002
136.233568
156.917572
175.023675
178.680420
173.770785
156.303644
128.014684
107.042789
78.430772
58.545470
39.215684
31.301975
22.585988
19.800663
16.978979
16.257763
14.663935
13.516545
13.239980
12.170672
11.392832
10.687709
10.348558
9.355545
9.272695
8.433461
7.851720
7.880926
7.285476
7.111430
6.692410
6.505847
6.719828
6.278753
6.054640
6.074905
5.942583
5.990863
5.233884
5.331635
4.564524
5.148649
4.554987
4.072785
3.617406
4.442930
4.101992
3.871918
3.731847
3.698468
3.347993
3.064871
3.204942
3.327727
3.281832
3.075600
2.849698
##ZVALUE=280
0.721812
0.746846
0.643730
0.850558
0.663996
0.611544
0.692606
0.648499
0.595450
0.675917
0.689626
0.768900
0.909567
0.823736
0.690818
0.982881
0.931621
0.797510
1.121759
1.151562
1.558661
1.641512
7.711649
26.002526
80.114603
146.085620
269.199610
399.210453
570.917726
674.923658
736.442804
732.900500
661.154985
510.569811
381.465554
222.248435
140.028000
75.821877
54.503679
55.054426
68.896413
94.850659
118.135810
141.923428
155.623555
162.640810
155.951977
138.065815
120.052695
90.101957
68.899989
45.111775
32.169819
20.969510
15.863776
11.972785
11.078715
9.833574
9.476542
9.229779
9.136796
8.216500
8.323789
7.641912
7.256866
7.038713
6.705523
6.377697
6.606579
6.180406
5.662441
6.340742
6.056428
5.569458
5.411506
5.402565
5.516410
5.095601
4.659891
4.789829
4.665852
4.390478
3.963709
3.889799
3.830791
3.768802
3.782511
3.848672
3.579855
3.664494
3.525615
3.132820
3.280640
2.987981
3.178716
3.009439
##ZVALUE=285
0.496507
0.567436
0.407696
0.455976
0.445843
0.490546
0.563860
0.681877
0.538826
0.469685
0.585914
0.685453
0.706911
0.649691
0.498891
0.820756
0.802875
0.910759
0.661612
0.772476
1.081824
1.069903
1.063943
1.280904
3.829598
12.618899
42.887926
87.623000
189.767480
298.318863
425.722003
589.311719
680.034757
725.642443
692.149997
566.846728
448.058844
279.112458
179.007649
89.720488
51.908493
34.593940
38.476586
57.334900
78.433752
108.843446
127.398968
145.153999
150.770545
143.774748
134.314895
109.230876
87.319613
59.625506
42.333603
24.236441
16.523600
11.284947
8.325577
6.874800
6.865859
6.285906
6.289482
6.426573
5.727410
5.990863
5.809665
5.453825
5.537868
5.501509
5.508661
5.763769
5.909801
5.356669
5.199909
4.994869
4.968643
4.749894
4.608631
4.502535
4.277825
4.119873
4.164577
4.002452
4.288554
3.814697
3.785491
3.447533
3.326535
3.078580
3.429651
3.056526
3.300905
2.853870
3.247857
3.062487
##ZVALUE=290
0.311732
0.294447
0.324845
0.294447
0.380874
0.348687
0.520945
0.577569
0.502467
0.467896
0.475645
0.494719
0.551939
0.530481
0.564456
0.611544
0.569820
0.523925
0.515580
0.556707
0.775456
0.757575
0.940561
0.788569
1.072884
1.109838
1.410842
5.091429
24.682879
56.360960
107.041597
227.912664
353.379846
531.789660
641.924739
722.604990
715.976954
622.238517
513.457656
343.894958
228.225589
115.925670
61.985850
30.211806
24.295449
35.213828
49.347878
72.414875
93.419552
120.340586
134.169459
143.945813
141.922832
127.153993
106.992722
78.005791
59.767962
37.082434
24.856925
14.174581
9.436607
6.630421
5.685687
5.389452
5.223751
4.774928
4.781485
4.872680
4.785657
5.024672
4.928708
4.655719
5.089641
4.782677
4.946589
4.704595
4.569888
4.257560
4.128814
4.050732
3.902912
3.530979
3.659725
3.515482
3.698468
3.722906
3.531575
3.481507
3.589988
3.218651
2.956986
3.261566
2.940893
2.822876
2.731681
2.841949
##ZVALUE=295
0.186563
0.298619
0.294447
0.150800
0.361800
0.391603
0.348687
0.344515
0.358820
0.379682
0.496507
0.422597
0.489950
0.300407
0.313520
0.407696
0.433922
0.471473
0.325441
0.427961
0.515580
0.509620
0.740886
0.741482
0.857711
0.790954
1.015663
0.947714
1.288652
2.260804
11.787415
33.473969
77.078938
182.625651
291.625857
461.751819
572.632551
684.620738
714.235902
658.767819
563.844442
409.348011
279.691815
147.251487
82.667470
34.723878
20.865798
21.023750
28.200746
46.900511
62.765479
89.188814
108.480453
128.519535
135.968924
132.768750
119.791627
96.569657
78.314543
53.498745
38.039684
21.700859
13.749599
8.111596
5.745888
4.504919
4.096627
4.095435
3.860593
3.920794
4.419684
4.216433
4.636645
4.322529
4.392862
4.270673
4.154444
4.198551
3.995895
3.861785
3.707409
3.647804
3.533959
3.807545
3.614426
3.200769
3.430843
3.212690
3.045797
3.040433
2.884865
2.978444
3.098845
2.958775
2.821684
2.805591
##ZVALUE=300
0.350475
0.417829
0.303984
0.430942
0.237823
0.479817
0.429749
0.313520
0.374913
0.415444
0.446439
0.391603
0.284910
0.520945
0.487566
0.550747
0.534654
0.554919
0.458956
0.456572
0.590682
0.554919
0.513792
0.484586
0.709891
0.763535
0.685453
0.827909
1.039505
0.947714
1.152754
1.238585
4.240870
17.094612
58.129430
116.238594
235.140920
356.251001
524.057746
622.977018
697.804689
690.665841
601.521730
490.803719
329.995751
215.987563
110.297799
59.064627
24.052858
15.247464
17.561913
24.835467
41.396618
57.624578
79.984665
100.742579
119.139552
126.997828
123.868585
115.915537
95.107555
76.476932
52.540898
38.485527
22.986531
14.452934
8.182526
5.660653
4.305840
3.961921
3.801584
3.736615
3.711581
3.732443
3.675818
3.838539
3.665686
3.700852
3.867745
3.728867
3.578663
3.555417
3.529787
3.480911
3.189445
3.410578
3.332496
3.387928
3.206730
2.946854
2.869964
2.976656
2.852678
2.969503
2.817512
2.752542
##ZVALUE=305
0.332594
0.315905
0.282526
0.402927
0.298619
0.198483
0.499487
0.426769
0.471473
0.202656
0.274777
0.479817
0.443459
0.393987
0.583529
0.435710
0.431538
0.335574
0.408888
0.412464
0.565648
0.656843
0.555515
0.421405
0.510812
0.730753
0.679493
0.710487
0.634789
0.866652
0.900626
0.949502
0.984669
1.232624
1.948476
11.962652
33.334494
91.551542
166.597962
307.968855
426.357985
576.876998
658.883452
684.136748
637.027025
512.141585
400.811434
249.490738
158.655643
73.685646
36.953688
15.205741
11.249781
15.368462
22.663474
38.561821
55.098534
78.889728
95.201731
112.529993
119.784474
117.760897
110.713840
91.229677
73.133707
50.166845
35.708547
21.251440
13.440847
7.360578
5.187988
4.196763
3.558993
3.511906
3.469586
3.770590
3.304482
3.310442
3.495812
3.310442
3.344417
3.518462
3.465414
3.366470
3.208518
3.238916
3.517866
3.306866
3.087521
3.084540
3.080964
3.194809
2.976656
2.772808
2.881885
2.891421
##ZVALUE=310
0.257492
0.329614
0.360608
0.127554
0.273585
0.209808
0.333786
0.219941
0.436902
0.340939
0.302792
0.331998
0.287890
0.445843
0.467896
0.472665
0.177622
0.313520
0.262856
0.401735
0.512600
0.460744
0.551939
0.530481
0.451803
0.426769
0.333786
0.699759
0.471473
0.519753
0.613928
0.743866
0.833869
0.998974
1.154542
1.082420
1.208782
4.904866
16.168952
55.674911
109.722614
228.506923
342.324972
505.033731
605.244637
675.279498
662.733912
579.295754
481.393933
320.200920
214.054585
108.032823
57.803988
21.715760
11.311769
9.511709
12.567639
21.136403
31.656623
50.576925
66.355467
88.614821
100.834966
111.535788
112.396479
102.968812
89.942813
69.254637
52.647591
33.411980
22.201538
12.943745
8.160472
4.938841
4.003644
3.706813
3.136992
3.185868
3.251433
3.259778
3.163815
3.237724
3.032684
3.210902
3.180504
3.223419
3.293753
3.162622
3.154874
3.163815
3.113747
2.928972
2.824664
3.075600
2.908707
2.925992
##ZVALUE=315
0.479817
0.539422
0.504851
0.614524
0.428557
0.389814
0.331998
0.360608
0.196695
0.355840
0.600815
0.447631
0.483990
0.505447
0.463724
0.448823
0.582933
0.470877
0.627637
0.536442
0.475645
0.511408
0.513792
0.666976
0.687838
0.553727
0.562668
0.619888
0.525713
0.658631
0.554919
0.595450
0.680685
0.737906
1.001954
1.035929
1.130700
1.009703
1.252890
2.340674
8.400679
34.867525
76.495409
171.954632
277.427435
441.398621
547.537804
638.982654
662.811995
608.140826
521.037579
374.389887
263.919830
140.858889
78.604817
29.872656
14.217496
7.999539
8.615851
12.308955
18.106699
30.878782
43.323636
63.880682
79.334974
97.339749
104.994774
105.101466
99.212527
82.046986
66.655874
48.212409
33.833981
19.623637
12.619495
7.392764
5.101562
3.969669
3.544688
3.166795
3.332496
3.166795
3.113747
3.155470
3.168583
3.187656
3.242493
3.156662
3.056526
3.087521
3.185868
3.152490
3.126860
3.246665
3.165603
2.931952
##ZVALUE=320
0.273585
0.147820
0.299811
0.456572
0.248551
0.256896
0.381470
0.330806
0.284910
0.255704
0.174642
0.174642
0.249743
0.339746
0.264645
0.250936
0.359416
0.402927
0.320673
0.290871
0.334978
0.335574
0.326633
0.442863
0.496507
0.456572
0.645518
0.527501
0.455976
0.475645
0.470877
0.512600
0.524521
0.637770
0.514984
0.644922
0.685453
0.715852
0.757575
0.788569
0.951886
1.416802
3.893971
20.685792
49.038529
126.780868
208.984613
349.708796
460.560918
585.802794
637.058020
629.732609
566.427708
438.416004
321.397781
181.033611
102.496743
42.679906
20.311475
8.595586
6.745458
7.639527
10.261536
16.285777
25.566816
41.442513
55.904984
74.402690
87.770820
98.236799
99.758506
91.491938
80.936551
61.523914
46.835542
30.948520
20.919442
11.882782
7.547736
4.703999
3.687739
3.150702
3.026724
3.144741
2.876520
2.752542
2.782941
2.852678
3.060699
2.921820
2.775788
3.052950
2.917647
3.035665
3.138781
2.891421
##ZVALUE=325
0.324845
0.339746
0.259876
0.162721
0.232458
0.251532
0.252724
0.277758
0.179410
0.263453
0.344515
0.295639
0.309944
0.250936
0.296831
0.198483
0.360608
0.339746
0.342727
0.258684
0.454783
0.286698
0.434518
0.193715
0.364780
0.330806
0.321865
0.415444
0.302792
0.581741
0.453591
0.417829
0.417829
0.407696
0.575781
0.549555
0.513792
0.648499
0.640750
0.624657
0.702739
0.819564
0.907779
1.036525
2.529621
9.439588
36.791563
75.235963
167.292953
269.452929
417.159796
514.387488
608.450770
623.827577
569.023490
482.401848
331.133008
226.741433
120.251775
68.705678
26.375651
12.361407
6.671548
6.066561
6.800890
9.137988
15.584826
24.215579
39.283633
54.469705
72.859526
83.947778
91.939569
93.084574
85.573792
75.034499
58.137774
44.193864
28.199553
18.633604
10.233521
6.746650
4.333854
3.684759
3.101826
2.979636
3.103614
2.869964
2.971888
3.040433
2.916455
2.668500
2.585649
2.713799
2.635717
2.619624
##ZVALUE=330
0.208616
0.321865
0.091791
0.303984
0.275970
0.314713
0.219941
0.294447
0.220537
0.451803
0.349879
0.202656
0.318885
0.291467
0.230670
0.360608
0.342727
0.251532
0.153780
0.333786
0.422597
0.339746
0.318885
0.354648
0.297427
0.327826
0.273585
0.302792
0.491738
0.524521
0.335574
0.549555
0.359416
0.510812
0.317693
0.482798
0.479817
0.488758
0.584722
0.562668
0.673532
0.674725
0.686646
0.837445
0.655651
0.868440
1.273751
5.066991
17.062426
56.405663
108.441710
215.729475
319.757462
461.894870
548.238754
602.958798
587.637424
492.807627
395.405889
257.279873
165.890455
79.290867
40.402412
15.447736
7.952452
5.424619
5.369782
6.174445
8.590817
15.296936
22.457838
36.360621
48.415661
67.066550
76.941848
86.236596
86.292624
79.645514
69.444776
52.252412
40.252805
25.485754
17.926693
11.187792
7.433891
4.737973
3.725886
3.157854
2.742410
2.719760
2.799630
3.001690
2.717972
2.483726
2.588630
2.741814
##ZVALUE=335
0.172853
0.286698
0.304580
0.288486
0.187755
0.318885
0.329614
0.252724
0.380874
0.321865
0.259876
0.154972
0.198483
0.290871
0.280738
0.298619
0.269413
0.332594
0.219941
0.223517
0.178814
0.303984
0.414848
0.394583
0.358820
0.433922
0.365973
0.372529
0.297427
0.365973
0.200868
0.364780
0.327826
0.326633
0.513792
0.354648
0.421405
0.412464
0.474453
0.435710
0.303984
0.538826
0.529885
0.603795
0.666976
0.676513
0.728965
0.861883
1.010895
2.187490
8.663535
34.297705
73.010921
161.507726
257.519484
401.261449
495.810509
571.921468
583.270788
520.817637
436.851978
299.999714
202.692747
105.090737
55.819750
20.246506
9.600520
5.460978
5.302429
5.094409
5.689859
8.393526
12.774467
22.480488
32.547712
48.580766
60.565472
73.461533
79.876781
79.463720
74.205995
62.200427
52.018762
38.500428
28.486848
18.012524
12.026429
7.118583
5.235672
3.794432
3.217459
2.760887
2.736449
2.601743
2.530813
2.661943
##ZVALUE=340
0.143647
0.194907
0.154972
0.203848
0.335574
0.142455
0.275970
0.184774
0.245571
0.330806
0.170469
0.188947
0.136495
0.155568
0.196695
0.275970
0.150800
0.343919
0.327826
0.353456
0.325441
0.359416
0.292659
0.134706
0.168681
0.205636
0.219941
0.219941
0.260472
0.266433
0.266433
0.341535
0.387430
0.418425
0.437498
0.289679
0.384450
0.596642
0.523925
0.563860
0.591874
0.515580
0.469685
0.489950
0.689626
0.522733
0.608563
0.689626
0.515580
0.760555
0.706911
1.163483
4.262924
20.659566
50.289631
123.863816
208.071470
337.965488
435.695648
532.329679
562.743545
528.527498
460.560918
341.589451
243.761539
130.563974
72.151423
27.623773
12.535453
5.750656
4.831553
4.723668
4.707575
5.592704
7.871985
13.476610
20.008683
31.800866
43.215752
58.899522
68.091750
74.346662
74.777603
69.922805
61.564445
48.622489
38.832426
25.908947
18.703938
11.472702
7.626414
4.720688
3.404617
2.863407
2.426505
2.447963
##ZVALUE=345
0.173450
0.175834
0.231862
0.063777
0.309944
0.232458
0.198483
0.220537
0.298619
0.174642
0.203848
0.208616
0.231862
0.284910
0.172853
0.248551
0.246763
0.284910
0.274777
0.231862
0.293851
0.297427
0.053644
0.092983
0.088811
0.368953
0.331998
0.225902
0.385642
0.326633
0.184774
0.291467
0.308752
0.319481
0.236630
0.284910
0.321865
0.447631
0.491738
0.418425
0.375509
0.365973
0.474453
0.331998
0.398755
0.479817
0.417829
0.443459
0.536442
0.566840
0.557899
0.700951
0.955462
0.860691
2.264977
9.008646
36.864877
74.791908
159.245729
245.386958
372.244716
461.026430
531.018972
537.101626
474.368930
394.248962
269.273520
178.683996
83.225965
41.912794
14.661551
7.446408
5.003810
4.457831
4.099607
4.334450
4.992485
6.697774
11.700988
17.665625
29.501915
38.696527
51.788688
59.399605
68.077445
69.333911
66.563487
60.067773
47.580600
38.123727
26.494861
18.467903
11.237860
7.770658
4.473925
3.452897
##ZVALUE=350
0.208616
0.211596
0.055432
0.326633
-0.025630
0.243783
0.077486
0.239611
0.187755
0.239611
0.160933
0.126958
0.139475
0.289679
0.111461
0.232458
0.147820
0.184774
0.355840
0.192523
0.273585
0.249743
0.298619
0.185966
0.412464
0.222921
0.366569
0.298619
0.442863
0.197887
0.082850
0.303984
0.086427
0.335574
0.386834
0.151992
0.299811
0.325441
0.489950
0.211596
0.337958
0.416636
0.421405
0.388622
0.369549
0.332594
0.429749
0.312924
0.482798
0.452995
0.415444
0.443459
0.620484
0.676513
0.752807
0.751615
1.113415
5.421638
17.794967
55.730939
105.315447
209.397674
301.659703
418.699980
486.570597
523.981452
495.585799
409.139991
313.838720
187.316537
116.194487
53.630471
25.536418
8.919835
5.088449
4.368424
4.051924
3.715754
3.703833
4.739761
6.457567
11.159778
15.775561
24.608970
33.109784
45.954585
54.250956
62.342882
64.101815
61.441660
54.919720
44.236779
36.179423
24.557710
17.672777
11.076927
##ZVALUE=355
0.276566
0.220537
0.212789
0.144839
0.289679
0.196695
0.144839
0.246763
0.059605
-0.005960
0.082850
0.194907
0.195503
0.183582
0.205636
0.334978
0.217557
0.250936
0.232458
0.247955
0.246763
0.272989
0.315905
0.262856
0.304580
0.078678
0.152588
0.290871
0.247955
0.328422
0.461936
0.223517
0.277758
0.364780
0.200868
0.438690
0.284910
0.374913
0.232458
0.365973
0.195503
0.263453
0.239611
0.320673
0.277758
0.408888
0.400543
0.407696
0.322461
0.431538
0.473857
0.490546
0.442863
0.392795
0.526905
0.559688
0.505447
0.545979
0.798702
2.764463
9.087920
36.019683
73.657632
152.791739
241.308808
365.782976
441.998839
497.536659
494.555831
422.568917
341.392756
224.560499
142.735839
64.519644
31.552911
10.937452
5.607605
4.245639
3.855824
3.628731
3.503561
3.549457
4.051924
5.546808
8.352995
14.253855
20.355582
30.784607
38.327575
48.732758
54.253936
57.641864
55.693984
50.320625
42.585731
33.203959
##ZVALUE=360
0.167489
0.125766
0.231862
0.216961
0.223517
0.085831
0.214577
0.105500
0.168681
0.168681
0.258684
0.199676
0.054836
0.169873
0.185966
0.266433
0.179410
0.211596
0.062585
0.193715
0.192523
0.145435
0.183582
0.333786
0.145435
0.171661
0.172853
0.237823
0.190735
0.366569
0.421405
0.232458
0.329614
0.369549
0.345707
0.219941
0.224710
0.179410
0.389814
0.370741
0.373721
0.355840
0.370741
0.177622
0.396967
0.292659
0.188947
0.237823
0.401735
0.233650
0.430942
0.548959
0.314713
0.409484
0.476837
0.572801
0.558496
0.545979
0.660419
0.604987
0.947714
1.191497
3.992915
18.303990
45.058727
109.788775
181.262493
291.302800
382.185578
464.261770
480.389595
444.856882
375.520587
257.150531
172.972679
85.838437
45.304894
17.460585
7.936954
4.242659
3.882647
3.463626
3.214478
3.282428
3.146529
3.556609
4.474521
7.142425
10.491610
17.368793
23.902655
34.090877
41.225553
49.190521
51.696897
51.933527
##ZVALUE=365
0.131726
0.086427
0.221729
0.208616
0.099540
0.182986
0.272989
0.226498
0.241995
0.261664
0.180602
0.277758
0.164509
0.102520
0.141859
0.173450
0.110865
0.156760
0.156760
0.162721
0.247955
0.180602
0.324845
0.308752
0.342727
0.410676
0.200868
0.199676
0.247955
0.321865
0.243783
0.189543
0.231862
0.334978
0.276566
0.356436
0.403523
0.204444
0.119805
0.459552
0.274777
0.322461
0.200868
0.409484
0.389814
0.354648
0.298619
0.480413
0.460744
0.354648
0.261664
0.367761
0.365973
0.391603
0.263453
0.500679
0.432730
0.566840
0.522733
0.553727
0.654459
0.811815
0.678897
0.849962
1.647472
9.445548
27.233958
75.953603
135.734677
240.525007
327.574015
421.476960
459.655523
447.855592
392.801762
287.472606
205.688477
113.226771
63.156486
24.128556
10.626912
4.484653
3.780723
3.355742
3.244877
2.925992
2.834797
2.882481
3.103614
3.882647
5.617738
9.239912
13.277531
20.405650
27.375817
35.706758
##ZVALUE=370
0.101924
0.130534
0.187755
-0.001788
0.389814
0.149608
0.242591
0.269413
0.153780
0.253916
0.268817
0.167489
0.073910
0.057817
0.075698
0.363588
0.291467
0.125766
0.182986
0.269413
0.187755
0.103712
0.285506
0.212789
0.209808
0.212789
0.169873
0.404716
0.294447
0.035763
0.226498
0.303984
0.320673
0.387430
0.385642
0.340939
0.345707
0.406504
0.332594
0.297427
0.381470
0.264645
0.298619
0.410676
0.308752
0.311732
0.255704
0.484586
0.280738
0.429749
0.346899
0.551939
0.185966
0.412464
0.356436
0.500679
0.408888
0.451803
0.513792
0.523925
0.563860
0.652671
0.653863
0.707507
0.774860
0.759959
1.251698
5.297661
17.310977
56.639910
116.085410
252.386928
388.504863
551.908612
612.788796
584.380627
496.800542
357.161760
251.742005
138.168931
78.312755
31.216741
15.381575
6.198883
3.930926
3.362894
3.166795
2.954602
2.889633
2.615452
2.662539
2.910495
3.274679
5.253553
7.320642
12.129545
##ZVALUE=375
0.111461
0.221729
0.306964
0.160933
0.226498
0.196695
0.026822
0.180602
0.201464
0.042915
0.054836
0.259876
0.227690
0.239611
0.100732
0.379682
0.183582
0.097752
0.170469
0.117421
0.225902
0.329614
0.210404
0.201464
0.300407
0.241995
0.244975
0.227690
0.329614
0.222921
0.198483
0.499487
0.295639
0.438690
0.310540
0.428557
0.403523
0.521541
0.401735
0.478625
0.500679
0.286698
0.506639
0.389814
0.276566
0.322461
0.418425
0.229478
0.350475
0.491738
0.512600
0.351667
0.496507
0.553727
0.349879
0.424981
0.585914
0.496507
0.482798
0.438690
0.388622
0.504851
0.595450
0.599623
0.569820
0.719428
0.730753
0.752807
1.023412
2.701879
9.473562
33.539534
74.731708
182.421803
304.033756
476.961732
575.165749
621.215701
578.215718
440.194607
318.972468
182.879567
111.212730
50.481558
25.774837
9.281635
4.830956
3.339648
3.143549
2.982616
2.971888
2.628565
2.352595
2.227426
2.306700
3.071427
##ZVALUE=380
0.152588
0.113845
0.155568
0.238419
0.177622
0.256896
0.150800
0.042915
0.263453
0.121593
0.066757
0.273585
-0.004768
0.144839
0.150800
0.094771
0.150800
0.046492
0.217557
0.176430
0.187755
0.182986
0.181794
0.248551
0.324845
0.311732
0.284910
0.271797
0.258684
0.510812
0.485778
0.541806
0.599623
0.579953
0.440478
0.577569
0.734925
0.769496
0.649691
0.764728
0.731945
0.582933
0.444651
0.662804
0.421405
0.364780
0.663996
0.523925
0.462532
0.426769
0.375509
0.517964
0.485778
0.527501
0.407696
0.368953
0.461936
0.446439
0.483990
0.416636
0.358820
0.532866
0.540614
0.340939
0.466704
0.554919
0.499487
0.664592
0.635982
0.629425
0.794530
1.369715
4.766583
22.781491
51.891804
119.552612
190.390944
295.329690
369.485617
430.777669
431.736708
371.729732
306.637883
214.340687
145.017505
71.718693
37.630796
13.877749
6.308556
3.250837
2.980828
2.619624
2.502799
2.331734
2.496839
2.108812
##ZVALUE=385
0.159740
0.198483
0.227690
0.250936
0.102520
0.304580
0.277758
0.306964
0.312924
0.285506
0.225902
0.229478
0.203848
0.272989
0.281930
0.212789
0.267625
0.220537
0.261664
0.384450
0.315905
0.144839
0.221729
0.355840
0.417829
0.438690
0.584722
0.737906
0.799894
0.999570
1.106858
1.216531
1.319647
1.356602
1.355410
1.611710
1.383424
1.328588
1.339912
1.305938
1.333952
1.097918
1.239777
1.192689
1.052618
1.002550
0.936985
1.001954
0.892878
0.808835
0.688434
0.804663
0.768900
0.625849
0.710487
0.632405
0.767708
0.667572
0.603795
0.712872
0.597835
0.567436
0.512600
0.594854
0.462532
0.585914
0.609756
0.720620
0.719428
0.624657
0.825524
0.796914
0.857711
1.118779
2.349615
12.645721
32.534599
81.600547
143.803954
250.609517
328.859687
406.613946
425.146818
402.034521
354.029536
258.657932
183.504820
100.799799
56.870580
24.035573
10.524988
3.856421
3.032684
2.827644
2.714992
2.593994
##ZVALUE=390
0.360608
0.433922
0.384450
0.376701
0.322461
0.341535
0.357628
0.346899
0.292659
0.493526
0.499487
0.446439
0.325441
0.300407
0.297427
0.495911
0.383854
0.444651
0.402927
0.413656
0.504851
0.389814
0.464916
0.566840
0.573993
0.720620
0.709891
1.002550
1.192689
1.444817
1.760721
1.836419
2.201796
2.161860
2.201796
2.462864
2.403855
2.373457
2.213717
2.175570
2.059937
1.854897
1.900792
1.745820
1.599789
1.544952
1.513958
1.329780
1.286864
1.364946
1.398921
1.047850
1.106858
0.929832
0.927448
0.900626
1.008511
0.984669
0.800490
0.736713
0.797510
0.799894
0.773668
0.776649
0.874996
0.846982
0.717640
0.767708
0.856519
0.884533
0.922680
0.876784
1.100898
0.993609
0.876784
0.970960
1.426935
6.808639
20.385981
61.545968
113.900900
209.817886
286.749005
367.867947
412.483811
423.679948
390.414596
306.984782
234.111547
142.317414
83.878636
34.855604
16.461611
5.612969
3.191829
2.901554
##ZVALUE=395
0.184774
0.175834
0.164509
0.149608
-0.015497
0.070930
0.076890
0.122786
0.064969
0.164509
0.031590
0.227690
0.112653
0.238419
0.175834
0.110865
0.214577
0.254512
0.141859
0.138879
0.129938
0.105500
0.204444
0.300407
0.417829
0.558496
0.679493
0.847578
1.327991
1.683831
2.004504
2.348423
2.463460
2.781749
2.973676
3.270507
3.112555
2.990961
2.853870
2.852678
2.622604
2.439618
2.414584
2.003908
1.969934
1.813769
1.532435
1.700521
1.519918
1.423955
1.316667
1.314878
1.147985
1.153946
1.036525
0.908971
0.730753
0.784993
0.694990
0.788569
0.670552
0.753999
0.677705
0.568628
0.540614
0.588894
0.637770
0.627637
0.580549
0.653863
0.686646
0.607967
0.790954
0.401735
0.470877
0.704527
0.532866
0.757575
0.837445
3.332496
13.259649
44.306517
83.448887
156.760812
230.360627
333.023667
394.845009
432.298779
418.774486
353.050828
276.197791
171.236992
107.088685
47.721863
23.150444
8.265972
##ZVALUE=400
0.219941
0.162721
0.162721
0.118613
0.202656
0.158548
0.041723
0.175834
0.134706
0.192523
0.211596
0.158548
0.150800
0.114441
0.101924
0.179410
0.034571
0.264645
0.216961
0.068545
0.179410
0.021458
0.225902
0.161529
0.235438
0.499487
0.677705
1.005530
1.455545
1.816750
2.392530
2.633929
2.833605
3.201962
3.104806
3.336668
3.139973
3.416538
3.064871
2.952814
2.910495
2.700686
2.628565
2.471805
2.467632
2.085567
1.994967
1.892447
1.685619
1.489520
1.287460
1.269579
1.293421
1.185536
1.090765
0.963807
0.892878
0.890493
0.817776
0.693798
0.739694
0.751615
0.802875
0.635982
0.585914
0.698566
0.614524
0.682473
0.765920
0.633597
0.680685
0.517964
0.510812
0.579953
0.453591
0.562668
0.522733
0.672936
0.697970
0.790954
0.786781
1.743436
6.637573
24.709702
53.555965
119.139552
188.697577
291.563869
357.996821
414.259434
419.936776
371.188521
302.476883
202.012658
133.560896
67.327619
##END
