##TITLE=AAI0501
##FORMAT=SPECTACLE-ASCII V-1.2
##DATA TYPE=ULTRAVIOLET SPECTRUM
##SECOND TYPE=ULTRAVIOLET SPECTRUM
##DATE=05/24/18
##TIME=16:12:38
##SPECTROMETER/DATA SYSTEM=SPECTACLE
##XUNITS=NM EM
##YUNITS=ENERGY
##YFACTOR=1
##FIRSTX=220
##LASTX=410
##NPOINTS=96
##3DDATA=Equidistant
##ZUNITS=NM EX
##FIRSTZ=210
##LASTZ=400
##ZPOINTS=39
##XYDATA=(Y..Y)
##ZVALUE=210
7.454753
8.041859
7.664561
6.332994
6.843805
6.216764
7.665753
5.540848
4.948974
4.579425
4.691482
4.208684
4.303455
4.866719
4.112720
4.226565
4.534721
4.915595
5.157590
6.100535
6.605983
6.145835
6.585717
7.610917
6.829500
7.641912
7.750988
8.089542
8.549690
8.613467
8.529425
9.738803
9.251833
10.122657
10.421872
10.213852
9.957552
11.049509
11.481643
11.661649
12.031794
11.765957
11.941791
13.012886
13.235807
13.274550
12.940764
12.295842
14.309883
13.579726
14.790893
14.412999
14.912486
14.221668
14.061928
15.965700
13.510585
16.587973
14.432669
16.213655
15.863776
16.419888
15.984774
14.700890
17.399788
21.376610
23.242831
27.556419
32.325983
37.728548
45.890808
50.393939
55.778623
58.896542
59.760809
58.576465
54.928660
54.183602
46.525002
43.505430
35.547614
31.146407
26.437640
22.800565
19.246936
16.787648
14.887452
15.819669
14.857650
14.411807
14.995933
16.399622
16.291738
18.017888
19.307733
22.475719
##ZVALUE=215
28.947592
30.197501
22.684932
18.529892
16.019940
14.811754
13.180971
14.596581
13.052821
12.721419
10.293722
9.480715
7.334948
6.455779
5.484819
4.805923
5.224943
5.032420
4.670620
5.232692
5.732775
6.404519
7.018447
6.796718
7.603765
7.175803
7.290840
8.436441
7.872581
8.215904
8.423924
10.033846
9.250641
9.359717
9.484887
11.231899
11.886954
10.725856
11.178851
11.924505
11.895895
11.788607
11.102557
11.435747
11.826754
11.999607
12.546778
12.223721
13.103485
12.693405
14.139414
12.943745
13.664961
12.801886
13.870597
13.889670
14.508963
13.434887
14.390945
13.786554
14.128685
15.150905
14.966726
16.997457
16.229749
16.881824
19.447803
24.002790
26.418567
30.243993
34.954548
39.592981
44.579506
46.332479
45.861602
44.941902
43.805838
42.340755
36.409497
33.890605
28.381944
24.803877
21.855831
19.786954
18.505454
17.077923
15.092492
15.728474
13.808608
14.499426
14.525652
13.522506
14.274716
14.656782
14.127493
15.695691
##ZVALUE=220
92.816949
90.432763
88.669658
72.890520
60.866475
47.393441
38.185716
28.082728
27.494431
26.575923
26.527643
24.544597
22.240877
18.843412
14.825463
11.295676
8.432865
6.441474
5.757809
5.186796
5.026460
5.932450
5.791783
6.683469
5.782843
7.337928
6.230474
6.887913
7.637739
7.725954
7.617474
8.118749
9.137988
8.500814
9.168983
8.391738
10.781884
10.347962
10.617971
10.195971
9.350777
11.161566
11.099577
10.533929
11.319518
11.517406
12.001991
11.731982
12.469888
11.422634
12.638569
12.152791
11.299849
12.851954
13.724566
12.232661
12.369752
13.300776
12.921691
12.884736
13.151765
13.397932
13.186932
14.556646
14.492869
15.395880
18.428564
19.147992
23.921728
26.306510
30.132532
32.843947
36.082864
37.931800
37.891865
37.131906
34.248829
32.329559
29.791594
27.555823
23.001432
21.594763
18.266439
16.804934
16.948581
15.910864
15.095472
14.489889
12.832880
12.618899
12.178421
12.613535
12.913942
12.882948
11.742711
12.500882
##ZVALUE=225
145.375729
147.881508
176.700950
190.407634
191.261768
168.860555
144.266486
102.821589
75.408816
57.873726
44.927001
42.489767
44.859648
44.729710
41.702986
37.941933
30.206442
22.563934
17.134547
10.964870
8.231997
6.070733
5.629659
5.574822
5.857944
6.274581
6.262660
6.641746
6.708503
7.144809
8.101463
7.536411
8.477569
9.095669
8.759499
9.080768
9.256601
8.901954
9.531975
9.426475
9.639859
9.816885
10.430813
10.918975
11.015534
10.257959
9.991527
11.049509
11.180639
10.964870
11.997819
10.608435
10.512471
12.321472
12.888908
11.890531
11.712909
12.475848
12.702942
12.955666
12.339950
13.067722
12.587905
13.142824
14.090538
16.630888
15.703440
19.546747
22.135973
23.989677
25.587678
28.779507
33.070445
32.609701
32.639503
31.670928
30.014515
28.466582
25.322437
21.859407
19.959807
18.838644
17.388463
16.274452
14.201999
14.118552
13.910532
13.474822
12.202859
12.181997
13.503432
13.326406
11.730790
11.909604
11.581779
12.274981
##ZVALUE=230
100.763440
109.843612
169.580579
254.379511
307.979584
344.463587
358.441472
317.929983
271.261930
213.665962
141.665936
98.701715
70.547462
65.167546
66.378713
69.772601
68.546534
63.635707
52.332878
43.147802
32.314658
19.191504
13.493896
8.473992
6.815791
6.290674
6.099939
6.294847
6.008744
6.529689
7.188916
7.045865
7.289648
7.759929
8.130670
8.471608
8.607507
8.362532
9.481907
9.112954
8.427501
9.394884
8.378625
9.971857
9.349585
10.635853
9.753704
9.881854
10.046959
10.514855
10.943413
10.415912
10.485649
11.362433
11.734962
10.546446
10.433793
11.096597
12.221932
11.944771
12.373924
12.754798
11.957884
13.266802
13.021827
14.013648
16.195774
17.307997
19.575953
21.412969
26.044846
27.358532
27.721524
29.094815
28.729439
28.936863
27.345419
26.205778
23.009777
21.608472
20.156503
17.902851
17.560720
15.577674
15.028715
14.483929
13.869405
13.907552
13.887882
13.531446
13.589859
13.308525
13.604760
13.754964
13.062954
13.651848
##ZVALUE=235
24.571419
29.070973
62.604547
145.558715
228.578448
348.192453
440.744758
520.299673
541.202426
573.794842
432.838798
336.741805
216.164589
155.962706
106.866956
88.822842
83.994865
91.887712
93.313456
93.114972
78.848004
65.559745
47.584772
33.767819
21.249652
13.869405
9.902716
7.645488
6.897449
6.087422
6.059408
7.327795
7.036924
7.061958
7.830858
7.429719
7.104874
6.966591
7.397532
7.608533
7.595420
8.161664
7.895827
8.220673
8.663535
8.202791
8.333921
8.621812
8.530617
8.996725
8.524656
8.991957
8.912683
9.092689
9.591579
10.005832
9.157658
10.067821
10.248423
10.120869
10.273457
10.624528
11.249781
12.106895
12.237430
12.898445
14.070868
16.109943
17.252564
20.353794
21.568537
23.674965
24.747849
25.592446
24.585724
25.802851
23.460984
23.327470
20.374656
20.177960
18.982887
17.189980
17.074943
16.122460
14.262795
15.124679
14.343858
14.123917
15.133619
14.859438
13.561845
13.903975
13.745427
14.012456
13.429523
13.015866
##ZVALUE=240
2.153516
2.328753
6.252527
28.267503
62.635541
146.001577
239.048600
402.055979
527.907610
654.922724
700.733662
663.898587
591.114759
441.607833
331.846476
232.185721
142.723918
108.177662
92.116594
96.219778
105.497837
109.248757
99.712610
88.236928
68.309903
50.883889
38.257837
23.302436
15.628934
9.982586
8.322597
6.642938
6.319880
6.422997
6.784797
6.556511
6.695986
6.414652
6.503463
6.633997
6.692410
6.855726
7.295609
7.040501
6.978512
7.343888
7.270575
7.288456
7.560849
7.889867
7.526875
7.908940
7.649660
7.743835
8.128881
8.398890
8.374453
8.883476
8.613467
8.961558
9.079576
9.001493
9.731650
9.862781
10.237694
12.045503
13.566613
13.931990
16.236901
17.398596
19.618869
21.465421
23.287535
22.530556
22.929907
22.210479
21.242499
19.980669
19.034743
17.599463
16.653538
16.058683
15.122890
14.697909
14.473796
14.013648
14.197826
12.607574
14.371872
13.825893
14.146566
13.716817
13.098717
14.270544
14.131665
13.485551
##ZVALUE=245
1.210570
1.484752
1.494884
1.730919
4.826784
15.304685
53.214431
112.724900
247.722864
375.323892
571.187735
707.269907
800.039768
816.622972
757.770538
603.857636
481.722951
312.551856
212.215781
124.439597
94.935894
89.526772
100.202560
111.436844
112.349987
108.144879
92.434883
77.554584
56.497455
41.954517
29.288530
17.471910
11.511445
7.002950
7.117987
6.040931
6.338954
5.967617
5.828738
6.040931
6.092787
5.963445
6.107688
6.298423
6.134510
6.463528
6.270409
6.153584
6.694794
6.465912
6.899834
6.801486
7.167459
6.984472
6.820560
6.767511
7.077456
7.220507
7.570982
7.892847
8.053780
7.934570
8.315444
8.754730
9.604692
9.611845
10.095835
12.155771
12.643933
14.691949
16.451478
16.771555
18.253922
19.345880
18.620491
18.840432
18.447638
16.739964
16.225576
15.209913
15.555620
13.714433
13.099909
13.006926
13.081431
12.882948
12.589693
12.314916
12.529492
12.117624
12.682676
12.333989
12.521744
12.226701
12.415648
12.945533
##ZVALUE=250
1.325607
1.503825
1.307726
1.555681
1.240969
1.548529
2.287626
10.287762
32.695532
92.230439
180.137753
356.009007
510.737896
714.988708
828.212500
903.869867
875.622034
789.582729
608.435869
457.104445
274.502635
171.537995
100.435615
83.659887
90.018511
102.453828
114.942789
115.639567
110.398531
97.851753
78.108907
60.311556
45.311451
26.679635
17.873645
10.040998
7.831454
6.168485
5.766749
5.659461
5.607605
6.016493
5.957484
5.930662
6.028414
5.639791
5.878806
6.086826
6.092787
6.216764
5.913973
6.518960
6.341934
6.129742
6.628633
7.064939
6.716847
6.663799
6.757975
6.833673
7.160902
6.969571
7.396936
7.131696
7.857680
9.283423
9.183884
10.212660
11.879802
13.078451
13.932586
15.305877
16.220808
16.417503
16.750693
15.866756
15.395880
14.466643
14.106631
13.090968
12.937784
12.097955
11.848807
11.071563
11.248589
11.749864
11.258721
11.393428
11.623502
10.751486
11.155605
11.524558
11.561513
11.134744
11.268854
11.142492
##ZVALUE=255
1.150966
1.119971
1.245737
1.526475
1.392961
1.289845
1.556873
1.354814
2.040863
4.821420
24.817586
62.581897
128.396749
282.601714
440.778732
677.841902
836.749673
984.316468
1015.794873
940.350890
803.117752
622.187853
384.315848
238.996744
122.391582
84.128976
75.015426
84.721446
102.552772
114.901662
117.921829
114.332438
102.342963
81.770420
62.809587
42.131543
28.917789
16.751885
10.710955
7.017851
6.270409
5.617738
5.704761
5.874634
5.794764
5.927682
5.559921
5.904436
5.923510
6.011724
6.190538
5.790591
5.868673
5.784631
6.202459
6.122589
6.267428
6.459951
6.552935
6.444454
6.639957
6.833673
6.861687
6.859899
7.604957
8.146763
8.792877
9.215474
10.474920
11.121631
12.355447
12.838840
13.004541
13.412833
13.781786
13.554692
12.702942
12.010932
11.548996
10.925531
10.665655
10.126829
9.832978
10.029674
10.013580
10.327697
9.747744
10.159612
9.573698
9.752512
10.352731
9.865761
10.032654
9.877682
10.122657
10.205507
##ZVALUE=260
1.085997
0.968575
1.246929
1.153946
1.267791
1.260638
1.189709
1.108646
1.448989
1.554489
1.621842
2.735853
9.896755
42.361617
93.482733
224.445462
370.873809
617.252588
808.537006
1015.794873
1015.794873
1015.794873
989.738703
799.070001
523.977876
351.033807
191.833973
111.758709
68.874955
66.621900
82.793832
99.645853
113.144517
120.500922
118.264556
102.177858
87.045431
64.383745
47.345757
29.013753
19.328594
11.539459
8.088946
6.093979
5.801916
5.526543
5.963445
6.057620
5.952716
6.201863
6.383657
6.334782
6.213784
6.094575
6.314516
6.542802
6.593466
6.810427
6.380677
6.785989
6.526709
6.838441
7.082820
6.819963
7.083416
7.664561
8.241534
8.686781
9.190440
10.303855
11.518598
11.846423
11.775494
12.077689
12.196898
11.590719
11.083484
10.834932
9.954572
9.814501
9.675622
9.270906
8.984804
9.224415
9.069443
9.088516
8.980632
9.223819
8.892417
9.475946
9.278655
9.289980
8.740425
8.881688
9.077787
9.137988
##ZVALUE=265
0.899434
1.013875
1.040697
1.142621
1.213551
1.141429
1.324415
1.298785
1.355410
1.295805
1.475811
1.467466
1.607537
2.176762
4.262924
25.397539
64.414740
168.709755
302.431583
569.244027
802.356601
1001.730561
1015.794873
1015.794873
1015.794873
993.673801
730.136633
515.864491
283.419490
162.283778
92.400908
58.277845
62.782764
85.530877
101.030469
118.425488
122.174621
117.078424
105.356574
85.271597
66.517591
44.573545
30.177832
17.880797
11.986494
7.385612
6.918907
6.238818
6.057620
6.333590
6.397963
5.998611
6.000996
6.539822
6.461740
6.533861
6.518960
6.922483
6.515980
6.252527
6.426573
6.681681
6.317496
6.724000
7.241964
7.126927
7.782578
8.354783
8.889437
9.747744
10.461807
11.140704
11.733770
11.914968
11.707544
11.156797
10.755658
9.971857
9.925961
9.350777
8.817911
8.792877
8.542538
8.447766
8.336902
8.566976
8.430481
8.303523
8.355975
8.394718
8.329749
8.550882
8.791685
8.590817
8.844733
8.574724
##ZVALUE=270
1.023412
1.019835
1.002550
1.058578
0.971556
0.926852
1.102686
1.110435
1.107454
1.260638
1.177788
1.341701
1.225471
1.511574
1.666546
1.764894
2.217889
10.936856
33.962727
117.067695
237.077475
423.052907
757.339597
999.611020
1015.738845
1015.738845
1015.738845
1015.738845
983.364582
737.820864
498.787761
254.786611
136.868954
60.915947
49.121976
63.949823
81.424713
102.848411
114.360452
121.126771
118.533969
104.074478
89.837909
65.200925
48.624873
29.245615
20.246506
12.234449
8.540750
6.888509
6.670952
6.430745
6.452799
6.275773
6.401539
6.495714
6.516576
6.689429
6.507635
6.503463
6.566644
6.285906
6.358624
6.773472
6.563663
6.883740
7.296801
8.410811
8.348823
9.481907
10.012984
10.546446
10.590553
10.800958
10.636449
10.288954
9.688735
9.130836
8.824468
8.086562
8.264780
8.044839
7.670522
7.845759
7.955432
7.773638
7.844567
7.795691
7.793903
7.642508
7.912517
8.063912
7.662773
8.145571
8.304715
8.308887
##ZVALUE=275
1.011491
0.907779
1.085997
0.926852
1.216531
1.012683
1.104474
1.166463
1.054406
1.114607
1.184940
1.151562
1.143813
1.482964
1.437664
1.582503
1.498461
1.772642
2.140403
4.801750
20.063519
59.440732
186.262727
354.154706
676.182508
928.933024
1015.794873
1015.794873
1015.794873
1015.794873
1015.794873
962.758660
684.832931
366.269946
205.028653
82.800984
46.891570
44.676661
58.777928
80.594420
96.248984
112.731457
119.313598
115.949512
106.478930
85.041523
69.246888
47.713518
34.021735
20.406842
14.105439
9.307861
7.663965
6.550550
6.540418
6.463528
6.405711
6.710887
6.423593
6.678700
6.833673
6.810427
6.539822
6.814599
7.128716
7.242560
7.342696
7.957816
8.530617
9.052753
9.529591
10.470748
10.402799
10.709763
10.327697
10.050535
10.027885
9.313822
8.700490
8.293986
8.018613
8.071661
7.569790
7.408857
7.748604
7.488728
7.434487
7.414818
7.693768
7.709861
7.496476
7.823706
7.546544
7.834435
7.895827
7.839799
##ZVALUE=280
0.905991
0.959635
1.031756
1.041889
0.861883
0.879765
0.932813
1.009703
1.112819
1.031756
1.021624
1.253486
1.148582
1.310706
1.071692
1.284480
1.332760
1.636744
1.595616
1.840591
1.906753
2.471805
11.836886
42.485595
144.534707
277.769566
540.775657
803.599954
1015.794873
1015.794873
1015.794873
1015.794873
1015.794873
1015.794873
880.096555
504.913926
297.404528
124.368668
59.353709
33.857822
39.660931
59.424639
76.218843
97.851753
111.608505
118.641853
115.939975
103.656650
88.896751
65.961480
50.053000
32.717586
22.438765
13.332963
9.542704
7.204413
6.628633
6.221533
6.519556
6.525517
6.687641
6.730556
6.948709
6.732941
7.087588
7.546544
7.152557
7.939935
8.292794
8.665919
9.031892
9.611845
9.812713
9.633899
9.456873
9.114742
8.954406
8.630753
7.965565
8.007884
7.557869
7.573962
7.553697
7.528663
7.341504
7.607937
7.643700
7.553697
7.466674
7.321835
7.307529
7.482767
7.518530
7.505417
7.505417
7.308722
##ZVALUE=285
0.868440
0.959635
0.750422
0.900626
0.782609
0.914931
0.907779
0.828505
0.869632
1.015663
0.915527
1.151562
1.033545
1.174808
1.125932
1.426935
1.384616
1.262426
1.358986
1.647472
1.609921
1.732707
1.874566
2.012849
5.820394
20.420551
77.269673
167.948604
388.253927
640.213490
937.551856
1015.794873
1015.794873
1015.794873
1015.794873
1015.794873
1015.794873
713.796020
450.296402
208.299756
100.013614
36.458969
27.349591
37.543774
51.858425
75.471997
89.878440
105.820894
113.528967
111.515522
105.483532
87.356567
71.555972
50.320625
35.969615
21.304488
14.800429
9.232759
7.485747
6.914735
6.491542
6.409883
6.333590
6.722808
6.783605
7.032752
7.265806
7.762909
8.331537
8.835793
9.243488
9.364486
9.631515
9.177923
8.874536
8.973479
8.366704
8.231997
7.873774
7.704496
7.590652
7.271767
7.480979
7.496476
7.572770
7.449985
7.316470
7.317662
7.254481
7.557869
7.203817
7.231832
7.222891
7.457733
7.400513
7.499456
##ZVALUE=290
0.988841
1.015663
0.869632
0.872612
0.941753
0.805855
0.774860
0.861883
1.074672
0.945926
0.956655
1.021624
0.984669
1.173615
0.967979
1.040697
1.288652
1.145601
1.280904
1.075864
1.221895
1.525879
1.505613
1.842976
2.039671
2.062917
2.833605
8.382797
43.360591
106.821656
218.060613
495.710969
799.383521
1015.794873
1015.794873
1015.794873
1015.794873
1015.794873
1015.794873
956.236720
633.623600
313.909650
161.057711
54.885745
25.159717
24.795532
33.511519
50.261617
65.614581
86.642504
99.470615
109.701753
110.844970
101.659894
89.420676
68.206787
51.431656
33.778548
23.067594
14.285445
10.184646
7.484555
6.622672
6.553531
6.563663
6.687641
6.657839
7.074475
7.711649
7.984638
8.524656
8.736849
9.227991
8.857846
8.636713
8.355975
8.025765
7.914901
7.625818
7.448792
7.382631
7.418990
7.208586
7.132888
7.142425
7.343888
7.412434
7.133484
7.021427
7.190704
7.479787
7.184744
7.172823
7.132888
7.045865
7.069707
##ZVALUE=295
0.847578
0.670552
0.876784
0.887513
0.821948
0.887513
0.896454
0.779629
0.869632
0.978708
0.824928
0.965595
0.915527
0.931621
0.948906
1.046658
1.128912
1.065731
1.193881
1.368523
1.282692
1.297593
1.393557
1.139641
1.654625
1.562834
1.960993
2.071857
2.344847
3.843904
13.549924
64.777732
157.185793
393.356681
667.997003
1015.794873
1015.794873
1015.794873
1015.794873
1015.794873
1015.794873
1015.794873
857.277513
457.994938
244.457722
83.581805
34.507513
17.674565
20.084977
32.224655
44.506788
63.551664
78.501701
96.136928
104.127526
104.806423
97.957850
83.157420
68.605542
48.367977
35.776496
21.707416
14.867783
9.641647
7.607937
6.641746
6.780624
7.159710
7.079840
7.844567
8.147955
8.481741
8.437634
8.750558
8.384585
8.025765
7.828474
7.568598
7.566810
7.210970
7.413626
7.192492
7.340908
7.059574
7.272959
7.316470
7.043481
7.273555
7.122755
7.325411
7.168651
7.249713
6.843805
7.034540
7.074475
6.894469
##ZVALUE=300
0.795722
0.796914
0.797510
0.815988
0.731945
0.780821
0.632405
0.877976
0.948906
0.793934
0.777841
0.930429
1.047850
0.806451
0.953674
1.095533
0.935793
1.024604
1.066923
1.113415
1.151562
1.109838
1.390576
1.205802
1.390576
1.352429
1.539588
1.647472
1.812577
2.019405
2.177954
2.677441
6.078482
38.255453
102.586746
281.521678
503.926873
922.086835
1015.794873
1015.794873
1015.794873
1015.794873
1015.794873
1015.794873
1015.794873
631.381869
368.847847
153.882504
66.186786
19.926429
13.882518
19.094944
26.862621
41.520000
55.282712
74.488521
88.465810
97.606778
99.501610
93.528628
84.292889
65.239668
51.682591
34.181476
24.302602
15.065670
10.860562
8.304715
7.633567
7.666945
7.837415
7.992983
8.101463
7.979870
7.870793
7.520914
7.443428
7.289648
7.329583
7.247925
7.190704
7.194877
7.176995
7.178783
7.058978
7.130504
7.090569
7.228851
7.111430
7.122755
7.029772
6.885529
6.982684
6.945729
7.119775
7.070899
##ZVALUE=305
0.716448
0.767708
0.725985
0.820756
0.710487
0.897646
0.673532
0.803471
0.785589
0.758767
0.780821
0.909567
0.965595
0.845790
0.928640
0.863671
0.898838
1.014471
0.870824
0.997782
0.896454
0.976920
1.117587
1.213551
1.054406
1.216531
1.372695
1.363754
1.445413
1.579523
1.688600
1.841784
1.943707
2.405643
3.817677
22.212863
67.397952
206.170678
395.397544
769.615769
1015.794873
1015.794873
1015.794873
1015.794873
1015.794873
1015.794873
1015.794873
881.366730
559.217930
246.965885
113.986731
32.777786
13.904572
13.122559
16.844869
26.840568
37.513971
54.485798
69.049001
84.405541
91.431737
95.120668
90.196729
78.683496
65.418482
46.423674
34.894943
22.576451
15.872717
10.799766
9.167790
8.088946
8.047819
7.719994
7.778406
7.233620
7.301569
7.357597
7.057786
6.809831
7.065535
6.947517
7.016659
7.508993
7.336736
7.177591
7.090569
7.090569
7.186532
6.973743
6.991625
7.023811
6.940961
6.944537
6.846786
6.855726
##ZVALUE=310
0.869632
0.634789
0.652671
0.747442
0.720620
0.799894
0.902414
0.808835
0.714660
0.751615
0.907779
0.727773
0.692606
0.813603
0.830889
0.906587
0.746846
0.837445
0.934601
1.060963
0.998974
0.914931
1.060963
0.867844
1.097918
1.107454
1.177788
1.235604
1.380444
1.425743
1.401901
1.412630
1.628995
1.840591
1.965761
2.204776
2.618432
9.236932
33.944845
125.633478
263.521671
578.327775
908.087492
1015.791893
1015.791893
1015.791893
1015.791893
1015.791893
1015.791893
1015.791893
802.209973
400.461555
206.019878
64.947605
22.212863
9.997487
11.122823
15.741587
22.106767
34.092665
46.178699
63.390732
75.537562
86.647868
90.021491
86.659789
78.788996
64.390898
50.516725
34.223795
25.575757
16.815662
12.384653
9.250641
8.177757
7.548928
7.060766
6.964803
7.004738
6.785989
7.184744
7.025599
7.089972
7.113814
7.141829
7.207990
7.173419
7.245541
7.293820
7.240772
7.140636
7.024407
7.043481
6.917715
6.828904
6.876588
##ZVALUE=315
0.706911
0.775456
0.790954
0.750422
0.831485
0.804663
0.724792
0.597835
0.819564
0.698566
0.709891
0.731945
0.670552
0.765920
0.861883
0.749826
0.854731
0.739694
0.776649
0.900626
0.843406
0.872612
1.108646
1.041889
0.966787
1.104474
1.023412
1.179576
1.272559
1.110435
1.219511
1.487732
1.301765
1.493692
1.618862
1.770854
2.090931
2.312660
2.385974
4.711747
17.857552
83.416700
194.271803
461.287498
782.377720
1015.790701
1015.790701
1015.790701
1015.790701
1015.790701
1015.790701
1015.790701
1003.649831
575.645566
312.600732
107.083917
38.159490
10.996461
9.140968
10.787845
14.071465
21.345615
29.789805
44.283867
56.674480
72.763562
81.315637
85.487962
84.149837
73.379874
63.397884
47.915578
36.126971
23.248792
16.560555
11.078715
8.772612
7.643700
7.288456
6.991625
7.001758
7.205606
7.198453
7.071495
7.178783
7.352829
7.248521
7.500648
7.268786
7.296801
7.030964
7.076859
7.150769
7.167459
7.089972
7.060766
##ZVALUE=320
0.705719
0.747442
0.838637
0.681877
0.849962
0.686646
0.695586
0.902414
0.793934
0.674725
0.612736
0.796914
0.705719
0.897646
0.685453
0.778437
0.736713
0.867844
0.832677
0.677705
0.943542
0.941753
0.852942
0.976920
0.844598
0.965595
0.933409
1.078844
1.101494
1.125932
1.133680
1.336932
1.272559
1.358986
1.350641
1.526475
1.616478
1.735687
1.917481
2.100468
2.315640
2.916455
7.438660
45.162439
122.697949
339.599848
581.642985
991.054773
1015.799642
1015.799642
1015.799642
1015.799642
1015.799642
1015.799642
1015.799642
792.592764
457.300544
182.213783
77.380538
19.299984
9.121895
8.512735
9.456873
12.902617
17.936826
28.846860
38.621426
53.971410
65.806508
77.223778
81.440806
79.668760
73.629618
59.071779
47.360659
32.684803
23.612976
15.621781
11.538863
8.805990
7.566810
6.825924
7.227659
7.238984
7.082820
6.973743
7.221699
7.278919
7.134676
7.150769
7.223487
7.235408
7.243752
7.134676
6.958842
6.987453
##ZVALUE=325
0.661612
0.655651
0.696778
0.759959
0.745654
0.777841
0.919700
0.750422
0.810623
0.778437
0.914931
0.828505
0.846982
0.935793
0.819564
0.831485
0.845790
0.938773
0.786781
0.898838
0.987649
0.811815
0.934601
0.937581
0.983477
1.155734
0.949502
1.086593
1.201630
1.174808
1.132488
1.071692
1.096725
1.315475
1.296997
1.296997
1.531839
1.649857
1.597404
1.853704
1.942515
2.096891
2.334714
2.662539
4.398823
27.747750
78.693628
229.915977
442.413092
880.653858
1015.881896
1015.881896
1015.881896
1015.881896
1015.881896
1015.881896
1015.881896
967.131853
612.271428
272.619724
125.538707
31.800866
11.389852
8.211732
8.136630
9.736419
12.280941
18.638968
26.504993
40.490627
51.353574
64.345598
72.883964
77.160597
75.081587
66.116452
56.090951
42.381883
32.747984
21.229982
15.357733
10.781884
8.817911
7.557869
7.444620
7.457733
7.203817
7.029772
7.182956
6.897449
6.943941
7.087588
7.073879
6.990433
7.126927
7.127523
##ZVALUE=330
0.612736
0.584722
0.608563
0.630617
0.788569
0.747442
0.624657
0.746846
0.714660
0.639558
0.738502
0.642538
0.689626
0.682473
0.869632
0.534654
0.703931
0.841618
0.809431
0.792742
0.672936
0.947714
0.798702
0.900626
0.792742
0.788569
0.759959
0.951886
0.937581
0.801682
0.944734
1.049638
1.089573
1.040697
1.176596
1.237988
1.216531
1.177788
1.230836
1.508594
1.349449
1.634955
1.760721
1.984835
2.052784
2.437830
2.796650
11.286736
39.514899
141.432881
292.835832
639.072657
974.694490
1015.794873
1015.794873
1015.794873
1015.794873
1015.794873
1015.794873
1015.794873
824.560523
388.669968
196.094513
62.574744
19.726753
8.446574
7.987618
8.103848
9.513497
13.001561
17.802715
26.683807
35.572648
49.587488
59.475899
68.717599
71.689487
69.563985
63.141584
52.015781
42.001605
29.422641
21.780729
15.041828
11.574626
8.702874
7.865429
7.328987
7.296801
7.079840
6.820560
6.898642
6.619692
6.754994
6.952882
6.730556
##ZVALUE=335
0.608563
0.560880
0.601411
0.687838
0.544786
0.703931
0.777841
0.687838
0.690818
0.707507
0.724792
0.584722
0.714660
0.727773
0.673532
0.837445
0.651479
0.744462
0.671744
0.757575
0.724792
0.722408
0.844598
0.738502
0.800490
0.864863
0.886917
0.867844
0.989437
0.875592
0.873804
0.964999
0.928640
0.859499
1.018643
0.918508
1.177788
1.093745
1.308918
1.125932
1.289845
1.267791
1.429915
1.665950
1.628995
1.868606
2.048612
2.291799
2.557635
5.217791
18.556714
85.268617
197.023749
481.608510
819.513798
1015.794873
1015.794873
1015.794873
1015.794873
1015.794873
1015.794873
1015.794873
987.930894
542.022586
284.662843
91.470480
31.202435
9.884834
8.202791
8.175969
8.455515
9.495616
11.804700
17.360449
23.914576
34.681559
44.255853
56.229830
63.223839
67.178607
66.401958
58.471560
51.261783
40.288568
31.777620
21.661520
16.078949
11.321902
9.440780
7.694960
7.102489
6.715655
6.717443
6.720424
6.650686
6.521940
##ZVALUE=340
0.622869
0.632405
0.646710
0.677705
0.636578
0.700951
0.598431
0.532866
0.711679
0.661612
0.590682
0.755787
0.536442
0.735521
0.728965
0.829697
0.699759
0.796914
0.608563
0.682473
0.741482
0.773668
0.748634
0.821948
0.747442
0.752807
0.758767
0.903606
0.697970
0.846982
0.800490
0.933409
0.852942
0.995994
0.922680
0.916719
1.028776
1.076460
1.225471
1.097918
1.181960
1.232624
1.274943
1.496673
1.465678
1.670718
1.725554
1.733899
2.003908
2.229810
2.342463
2.965927
12.203455
43.201447
156.493783
331.061482
730.767846
1015.807986
1015.807986
1015.807986
1015.807986
1015.807986
1015.807986
1015.807986
1015.807986
714.607835
333.598852
158.634782
39.442778
13.135672
8.377433
8.209944
7.947683
8.190870
9.134412
10.990500
15.886426
22.020936
32.682419
41.392446
53.611994
59.814453
62.938929
62.331557
56.213737
49.682856
38.999915
31.015873
21.188855
15.696883
11.128783
9.302497
7.595420
6.909966
6.642938
6.704926
##ZVALUE=345
0.765920
0.663996
0.659823
0.680685
0.617504
0.740886
0.730753
0.708699
0.829697
0.738502
0.582933
0.736713
0.861883
0.698566
0.699759
0.780821
0.701547
0.678897
0.832677
0.746846
0.767708
0.748634
0.708699
0.875592
0.860691
0.763535
0.782609
0.908971
0.730753
0.856519
0.947714
0.964999
0.948906
1.025796
0.909567
1.034737
0.936985
1.141429
1.200438
1.034737
1.082420
1.199841
1.368523
1.263618
1.414418
1.454949
1.476407
1.518726
1.614690
1.967549
1.757741
1.987815
2.382994
2.830625
4.559755
29.399991
92.611909
278.324485
528.927445
979.754925
1015.847921
1015.847921
1015.847921
1015.847921
1015.847921
1015.847921
1015.847921
858.749747
494.366884
189.874768
78.893900
20.894408
10.302663
8.862615
8.218884
7.740855
7.519722
8.354783
10.296702
15.066862
20.524859
30.516982
38.594604
47.432780
53.637624
58.056712
58.015585
53.690672
47.933459
38.314462
29.894710
21.197796
15.796423
10.822415
8.807778
7.256866
##ZVALUE=350
0.697970
0.648499
0.796914
0.730753
0.615716
0.630617
0.733733
0.519753
0.579953
0.721812
0.617504
0.635982
0.756979
0.714660
0.650883
0.749826
0.770688
0.757575
0.594854
0.772476
0.706911
0.732541
0.775456
0.663996
0.891685
0.875592
0.755787
0.782609
0.948906
0.830889
0.936985
0.983477
0.945926
0.644922
0.926852
0.929832
0.952482
1.138449
1.038909
1.027584
1.091957
1.108646
1.345873
1.120567
1.276731
1.440644
1.236796
1.616478
1.643896
1.593828
1.707673
1.899600
2.000928
2.065897
2.356768
2.709627
3.351569
14.374852
52.354932
190.619826
392.395854
847.325921
1015.792489
1015.792489
1015.792489
1015.792489
1015.792489
1015.792489
1015.792489
1008.510590
667.408109
305.857658
133.392811
31.033754
11.780858
8.370876
7.587671
6.882548
6.859899
6.918907
7.807612
10.270476
13.198853
19.003749
24.690628
34.173727
41.362643
48.774481
52.211881
53.762794
50.692558
43.488741
37.129521
27.370453
21.359921
14.860630
##ZVALUE=355
0.695586
0.628829
0.602603
0.686646
0.615716
0.693798
0.760555
0.682473
0.713468
0.682473
0.736713
0.810623
0.754595
0.690818
0.734925
0.803471
0.922680
0.709891
0.755787
0.755787
0.820756
0.866652
0.803471
0.940561
0.881553
0.919700
0.865459
1.029968
0.961423
0.899434
0.983477
0.815988
0.963807
1.023412
1.163483
1.161695
0.981688
0.890493
0.939965
1.038909
1.167655
1.059771
1.180768
1.287460
1.213551
1.232624
1.387596
1.494884
1.477599
1.620650
1.632571
1.691580
1.776814
1.874566
2.019405
2.254844
2.512932
2.452731
3.000498
7.020831
27.538538
124.198794
270.723701
616.554618
986.551642
1015.800834
1015.800834
1015.800834
1015.800834
1015.800834
1015.800834
1015.800834
853.887796
386.184454
183.785558
49.375892
15.503764
8.042455
7.496476
6.841421
6.663799
6.287694
6.511807
7.299781
8.569956
11.684895
15.680790
22.453666
28.693676
36.874413
42.956471
47.869682
48.656464
46.844482
42.257905
34.584999
##ZVALUE=360
0.640750
0.630617
0.711679
0.777841
0.741482
0.686646
0.743866
0.707507
0.591874
0.825524
0.780821
0.698566
0.740886
0.822544
0.855923
0.898838
0.786781
0.865459
0.779629
0.857711
0.846982
0.902414
0.809431
0.790954
0.896454
0.734925
1.004934
1.018643
0.977516
1.078844
0.964999
1.025796
0.994802
0.943542
1.078844
1.076460
0.911951
0.981688
0.902414
1.096725
1.214743
1.051426
1.147985
1.316667
1.305938
1.285672
1.266599
1.391768
1.483560
1.470447
1.554489
1.524687
1.620650
1.718998
1.921654
1.992583
2.179742
2.230406
2.443790
2.713799
3.044605
3.687739
12.504458
43.984056
163.053274
344.543457
754.259825
1015.846729
1015.846729
1015.846729
1015.846729
1015.846729
1015.846729
1015.846729
983.281732
631.703734
275.438428
113.586783
25.384426
9.457469
7.111430
6.625652
6.486773
6.248951
6.162524
5.946755
6.369948
7.459521
9.783506
12.786984
18.465519
23.874640
32.046437
37.148595
42.835474
44.493675
##ZVALUE=365
0.650883
0.544786
0.816584
0.777841
0.614524
0.715852
0.704527
0.725985
0.753999
0.573993
0.735521
0.825524
0.794530
0.775456
0.721812
0.741482
0.817776
0.658631
0.728965
0.763535
0.725985
0.686646
0.834465
0.857711
0.829697
1.007915
0.781417
0.922680
0.943542
0.734925
0.795722
0.903606
0.995994
0.755787
0.994802
1.031756
0.821948
0.982881
1.121759
0.985861
0.933409
1.094937
1.070499
1.100898
1.086593
1.203418
1.164675
1.273751
1.324415
1.177788
1.335740
1.407862
1.456738
1.400709
1.459718
1.651645
1.789927
1.799464
1.937747
2.159476
2.339482
2.687573
2.943873
3.442764
5.255938
30.278563
89.404583
262.451768
526.234508
1003.493667
1015.802026
1015.802026
1015.802026
1015.802026
1015.802026
1015.802026
1015.802026
772.894025
415.017605
142.624974
49.772859
11.025667
7.121563
6.331801
6.153584
5.862713
5.564690
5.168915
5.164742
5.440712
6.016493
8.079410
10.678768
15.631914
20.420551
27.170777
##ZVALUE=370
0.696778
0.629425
0.626445
0.578761
0.740886
0.725985
0.687838
0.664592
0.685453
0.721812
0.650883
0.668764
0.833869
0.702739
0.765920
0.776649
0.839829
0.803471
0.690818
0.708699
0.675917
0.595450
0.739694
0.734925
0.747442
0.800490
0.831485
0.696778
0.747442
0.848770
0.686646
0.808835
0.852942
0.820756
0.841618
0.824928
0.854731
0.880957
0.979900
0.986457
0.912547
1.050830
1.025796
0.962615
1.068711
1.054406
1.055598
1.012683
1.077652
1.192689
1.184940
1.224875
1.187921
1.371503
1.318455
1.429915
1.547933
1.576543
1.557469
1.760721
1.951456
2.052784
2.116561
2.457500
2.621412
3.072619
3.597736
14.102459
52.808523
199.860930
412.745476
874.098539
1015.794873
1015.794873
1015.794873
1015.794873
1015.794873
1015.794873
1015.794873
945.187807
547.299981
209.537745
88.071823
23.011565
8.854866
6.239414
5.801916
5.518794
5.082488
4.851818
4.734993
4.590750
5.005598
5.874634
6.855726
9.439588
##ZVALUE=375
0.618696
0.651479
0.615716
0.572801
0.682473
0.580549
0.745654
0.561476
0.637770
0.657439
0.486970
0.557899
0.577569
0.675917
0.739694
0.673532
0.611544
0.578761
0.809431
0.771880
0.691414
0.859499
0.685453
0.658631
0.784993
0.703931
0.762939
0.770688
0.736713
0.752807
0.745654
0.837445
0.758767
0.753999
0.749826
1.050830
0.752807
0.989437
1.002550
0.985861
0.911951
0.872612
0.802875
0.915527
0.920892
0.780821
0.811815
0.995994
1.172423
0.962615
1.142621
0.880957
1.081824
0.982881
1.068711
1.200438
1.060963
1.331568
1.229644
1.451969
1.516938
1.631975
1.726747
1.688600
2.038479
2.130866
2.313852
2.945662
3.436804
7.263422
25.648475
112.502575
264.098048
652.754903
1008.806825
1015.796661
1015.796661
1015.796661
1015.796661
1015.796661
1015.796661
1015.796661
805.780888
372.381806
180.569887
49.753785
15.293956
6.320477
5.518794
5.324483
4.921556
4.425645
4.370809
4.236698
4.230738
4.407763
##ZVALUE=380
0.640750
0.516772
0.429749
0.485778
0.450611
0.479817
0.406504
0.410676
0.376701
0.467896
0.540614
0.503659
0.572801
0.405908
0.479817
0.671744
0.520945
0.505447
0.564456
0.528693
0.447631
0.617504
0.535846
0.548959
0.640750
0.470877
0.707507
0.518560
0.630617
0.592470
0.550747
0.570416
0.720620
0.589490
0.498891
0.595450
0.517964
0.686646
0.710487
0.696778
0.747442
0.749826
0.562668
0.724792
0.714660
0.844598
0.738502
0.801682
0.756979
0.739694
0.972748
0.874996
0.926852
0.956655
0.989437
1.005530
1.026988
1.258850
1.076460
1.218915
1.203418
1.312494
1.330972
1.656413
1.706481
1.853704
1.937747
2.338886
2.636909
3.043413
3.566742
4.766583
13.868809
77.423453
200.442672
526.889563
909.429789
1015.677452
1015.677452
1015.677452
1015.677452
1015.677452
1015.677452
1015.677452
1015.677452
590.300560
302.946568
98.222494
32.127500
8.057952
5.434752
4.993677
4.580617
4.479885
4.265904
4.039407
##ZVALUE=385
0.369549
0.363588
0.428557
0.546575
0.443459
0.503659
0.423789
0.391603
0.424981
0.427961
0.554919
0.512600
0.485778
0.423789
0.494719
0.276566
0.516772
0.405908
0.384450
0.524521
0.504851
0.435710
0.500679
0.529885
0.570416
0.502467
0.547767
0.573993
0.502467
0.418425
0.485778
0.571609
0.521541
0.413656
0.484586
0.591874
0.620484
0.532866
0.631809
0.547767
0.665784
0.624657
0.708699
0.552535
0.567436
0.575781
0.526905
0.661612
0.706911
0.686646
0.753999
0.841618
0.888705
0.825524
0.793934
0.826716
0.801682
1.009703
0.964999
1.063943
1.077652
1.084805
1.140833
1.344681
1.279712
1.658797
1.849532
2.003908
2.187490
2.467632
2.684593
2.598763
2.866983
3.134608
5.781651
36.014915
109.764934
319.094658
610.641837
1015.687585
1015.687585
1015.687585
1015.687585
1015.687585
1015.687585
1015.687585
1015.687585
839.593410
492.529869
200.609565
75.596571
13.821721
5.746484
4.785657
4.522800
4.123449
##ZVALUE=390
0.537634
0.614524
0.511408
0.529885
0.606775
0.525713
0.327826
0.353456
0.507832
0.572801
0.550747
0.603795
0.444651
0.444651
0.516772
0.599623
0.509620
0.613928
0.600815
0.609756
0.510812
0.567436
0.709891
0.593662
0.582933
0.597835
0.691414
0.638962
0.555515
0.519753
0.669956
0.705719
0.659823
0.723600
0.615716
0.703931
0.742674
0.711679
0.732541
0.614524
0.733733
0.720620
0.822544
0.957847
0.763535
0.729561
0.751615
0.819564
0.822544
0.941753
0.841618
0.789762
0.888705
0.910759
0.993609
0.937581
0.975728
1.029968
1.081824
1.049638
1.219511
1.144409
1.338720
1.222491
1.505613
1.597404
1.872778
1.999736
2.301931
2.456903
2.625585
2.552867
2.523661
2.547503
2.609491
2.814531
3.721714
16.975999
64.178705
235.398412
491.935611
980.268717
1015.813947
1015.813947
1015.813947
1015.813947
1015.813947
1015.813947
1015.813947
1015.813947
713.863969
293.367505
128.042698
28.964877
8.451939
5.127788
##ZVALUE=395
0.526905
0.535846
0.367761
0.598431
0.692606
0.500679
0.635982
0.550747
0.442863
0.523925
0.495911
0.574589
0.583529
0.597835
0.494719
0.568628
0.498891
0.504851
0.687838
0.617504
0.651479
0.670552
0.557899
0.535846
0.376701
0.556707
0.599623
0.677705
0.549555
0.622869
0.719428
0.761747
0.682473
0.720620
0.718832
0.697970
0.643730
0.743866
0.584722
0.768900
0.738502
0.943542
0.840425
0.631809
0.807643
0.675917
0.788569
0.752807
0.822544
0.713468
0.827909
0.802875
0.936985
0.934601
0.915527
0.929832
0.984669
0.944734
0.851750
0.961423
1.031756
1.190901
1.263618
1.191497
1.521707
1.514554
1.676679
2.155900
1.944900
2.286434
2.216697
2.108812
2.180934
2.134442
2.147555
2.369881
2.324581
2.694726
3.200769
9.377599
37.489533
153.997540
324.822664
699.208975
1015.794873
1015.794873
1015.794873
1015.794873
1015.794873
1015.794873
1015.794873
1015.794873
996.076465
493.678451
236.996412
67.779422
##ZVALUE=400
0.440478
0.493526
0.471473
0.323653
0.488758
0.470877
0.449419
0.593662
0.510812
0.493526
0.548959
0.516772
0.462532
0.525713
0.687838
0.561476
0.584722
0.619888
0.591874
0.532866
0.466704
0.545979
0.627637
0.569820
0.600815
0.566840
0.568628
0.575781
0.617504
0.587702
0.601411
0.704527
0.660419
0.750422
0.723600
0.740886
0.694990
0.666976
0.746846
0.604987
0.618696
0.745654
0.767708
0.715852
0.841618
0.734925
0.909567
0.799894
0.807643
0.929832
0.871420
0.813603
0.956655
0.838637
1.095533
0.908971
0.948906
0.989437
1.028776
1.078844
1.090765
0.953674
1.102686
1.335740
1.217723
1.430511
1.718998
1.810789
2.027750
2.099872
2.082586
1.991987
1.927614
2.026558
1.964569
1.945496
1.997948
2.186894
2.246499
2.668500
3.020763
5.832911
20.458698
90.515614
216.395855
541.413426
935.419798
1015.794873
1015.794873
1015.794873
1015.794873
1015.794873
1015.794873
1015.794873
1015.794873
697.416663
##END
