##TITLE=FAAI0552
##FORMAT=SPECTACLE-ASCII V-1.2
##DATA TYPE=ULTRAVIOLET SPECTRUM
##SECOND TYPE=ULTRAVIOLET SPECTRUM
##DATE=05/24/18
##TIME=16:07:39
##SPECTROMETER/DATA SYSTEM=SPECTACLE
##XUNITS=NM EM
##YUNITS=ENERGY
##YFACTOR=1
##FIRSTX=220
##LASTX=410
##NPOINTS=96
##3DDATA=Equidistant
##ZUNITS=NM EX
##FIRSTZ=210
##LASTZ=400
##ZPOINTS=39
##XYDATA=(Y..Y)
##ZVALUE=210
9.945631
8.842945
8.145571
6.986856
6.775856
7.880926
6.565452
6.204844
5.769730
5.932450
5.076528
4.377961
5.055666
4.835725
4.820824
4.800558
5.673766
6.117821
5.356669
6.467700
6.090999
6.699562
7.034540
8.184910
10.115504
9.756684
12.531877
15.030503
18.779635
20.731688
25.264621
27.132630
30.530691
30.502677
31.473637
33.072829
33.741593
30.995607
29.890537
30.303597
30.030608
28.117895
26.833415
25.415421
24.039745
24.261475
22.258759
19.224882
19.283891
18.246770
16.824603
19.188523
15.785694
16.144514
15.838742
14.387965
13.853908
14.287829
13.183951
12.970567
13.472438
13.452768
13.080835
14.945865
14.956594
15.956759
16.641617
20.044446
24.714470
28.057694
30.226707
32.380819
37.505627
40.211678
42.527914
40.974617
38.998723
38.197637
33.670664
29.728413
25.040507
23.003817
16.185641
15.307665
13.009906
10.426641
11.035800
10.492802
9.924769
10.251999
10.973811
12.971759
13.928413
16.207695
19.159913
22.005439
##ZVALUE=215
46.871901
43.201447
33.548474
21.028519
15.914440
14.843941
13.819933
14.490485
14.119744
13.395548
11.757612
9.498596
8.183718
7.208586
5.662441
4.944801
6.144643
6.008744
5.466938
5.672574
6.824732
6.379485
6.408691
7.319450
9.501576
11.017919
15.302896
20.209551
27.335882
29.452443
36.187768
39.322972
46.671629
48.612952
50.716996
50.005913
48.857927
48.640966
47.259927
45.235753
46.322942
42.166710
39.692521
36.863685
33.362508
31.957626
32.576919
29.370785
26.152730
25.212765
22.769570
22.524595
20.476580
19.771457
19.285679
17.130971
16.253591
16.121864
16.045570
14.518499
13.849735
15.073419
13.868809
13.635755
13.321638
15.606880
15.746951
16.772747
20.213723
21.232963
24.007559
25.720596
28.335452
30.499697
29.285550
29.688478
28.706789
28.717518
24.171472
23.335814
19.109845
17.379522
14.783740
12.183785
11.176467
11.628866
9.889603
8.510947
9.673834
9.348989
8.806586
8.703470
9.674430
9.886622
10.930896
12.451410
##ZVALUE=220
160.894990
161.167979
145.391822
112.627745
82.036853
52.738786
40.367842
29.977560
27.740598
25.274754
25.833845
24.003983
21.969676
21.053553
13.836622
12.002587
8.791685
7.166862
6.202459
4.994869
5.646944
4.987717
6.033778
7.445812
10.254979
13.930798
17.371774
25.176406
32.276511
37.693977
49.369931
53.090453
59.329867
64.685941
67.202449
68.247914
69.340467
66.653490
64.293742
62.193871
57.699680
54.819584
51.359534
49.281716
44.953823
41.930676
38.971901
34.229755
33.119917
30.659437
28.498769
28.173923
24.334788
22.422671
21.917820
20.333529
18.739700
17.919540
17.525554
16.499758
15.829802
14.565587
15.037656
14.145970
13.503432
13.980865
14.887452
13.840795
17.417669
18.360615
19.487739
21.614432
22.360682
22.854805
23.498535
24.850965
22.168756
21.065474
16.959906
17.006993
13.432503
13.425946
12.784600
11.557937
9.946823
8.770823
9.248853
8.492470
8.656979
8.619428
8.631945
8.888841
7.803440
8.132458
7.745624
8.306503
##ZVALUE=225
270.782709
286.120772
321.362019
328.111649
292.325616
236.556530
184.784532
115.295649
81.814528
59.420466
45.714974
43.630600
44.194460
42.327642
41.262507
37.036538
27.342439
21.556616
17.679930
11.309981
8.379817
5.829930
5.996823
6.776452
8.690953
11.199713
16.324520
23.189783
29.820800
40.972829
45.072436
52.904487
58.231950
62.232614
68.329573
66.800714
67.798495
66.152811
65.356493
62.836409
58.510900
53.431988
52.795410
47.980547
46.135783
40.153861
40.012002
32.677650
31.004548
32.138824
29.426813
25.759935
23.818612
22.495985
22.970438
20.965934
19.905567
16.956925
17.486811
17.970800
15.387535
14.585853
15.046597
13.185740
14.071465
14.149547
13.522506
14.949441
15.637875
16.327500
16.916990
17.547607
20.167828
19.447803
18.958449
16.926527
17.844439
15.589595
13.667941
13.426542
11.680722
10.061860
9.638667
9.709597
8.431673
8.927584
9.016991
8.698702
8.895993
8.914471
8.404851
9.175539
7.576942
6.947517
8.530617
7.937551
##ZVALUE=230
158.141851
182.584524
285.566449
431.572795
523.279905
557.786822
523.840785
428.313613
338.448882
249.940753
144.714713
99.777579
72.562695
65.960884
66.927671
70.666671
70.744753
65.258741
57.632923
43.168664
32.378435
19.309521
14.353991
8.768439
8.070469
8.997917
12.032986
15.995502
19.952655
25.109649
30.891895
32.032728
37.734509
40.138960
41.711926
42.172670
42.150617
42.876601
42.033792
40.553808
38.011670
35.443902
34.119487
31.447411
30.862689
27.788877
26.133657
24.710894
22.946596
21.612644
20.013452
20.121932
19.309521
18.375516
15.295744
15.863776
15.173554
14.427900
13.387799
14.334917
12.970567
13.412833
11.848807
12.059808
12.981892
12.012720
12.874603
13.215542
15.460849
15.187860
16.989708
17.625690
17.552972
18.017888
17.574430
16.468763
16.574860
14.502406
14.116764
13.606548
11.539459
12.725592
10.641813
10.310411
9.562969
9.921789
8.933544
9.182692
9.736419
9.097457
9.264946
9.224415
9.220839
8.055568
8.855462
9.139776
##ZVALUE=235
23.097992
27.504563
65.245628
189.547539
321.391821
519.899726
659.059882
758.235455
755.505562
683.293939
515.054464
376.792550
223.573446
155.717731
103.429556
85.902810
86.586475
87.646842
93.772411
91.275573
81.507564
65.112710
48.906803
32.843947
22.331476
14.443994
11.168718
9.588599
10.770559
13.134480
13.927817
14.635921
16.968846
18.292665
17.980933
18.174648
19.213557
19.751787
18.717647
20.001531
19.090772
18.377900
18.749833
17.189980
16.193986
16.272664
15.345812
15.539527
14.864802
14.015436
13.596416
12.466908
12.498498
12.826920
12.337565
11.817813
12.125969
11.204481
11.397600
10.501742
10.993481
10.231733
10.033846
10.562539
11.127591
11.228919
11.263490
11.696815
13.303757
14.609694
14.513731
16.187429
16.591549
16.373992
16.167760
15.772581
15.104413
13.217926
12.717843
12.193918
11.998415
11.348724
10.364652
10.395646
10.411739
10.383725
9.791851
10.030866
10.070801
9.599924
9.918809
9.154677
8.782744
9.010434
8.904934
9.653568
##ZVALUE=240
2.379417
2.651811
8.406639
22.090673
64.626932
136.898756
306.715965
483.023524
723.674893
846.194625
889.348984
825.637579
697.698593
502.010584
353.571773
203.307867
139.483809
100.031495
91.281533
96.575618
105.294585
107.755661
98.838806
88.416934
67.692995
53.640604
37.535429
26.247501
16.602874
13.048649
10.330677
9.878874
10.394454
11.076927
11.891723
12.455583
12.773871
12.505651
13.122559
12.637973
13.337731
13.856888
12.289882
13.024807
13.064742
12.887716
11.833906
12.535453
11.515617
11.487603
11.001825
10.700822
10.741949
11.197925
10.513663
9.924769
9.987950
9.975433
9.494424
8.785725
9.843707
9.216666
9.161830
8.773804
9.551644
9.744763
10.665655
10.644794
11.310577
12.343526
12.856722
13.806820
14.065504
13.940930
14.330745
14.410615
12.996793
12.632608
12.796521
11.884570
10.841489
10.523796
10.338426
9.852648
9.768605
10.071993
9.399652
9.973645
9.418726
9.142756
9.568930
9.134412
8.914471
9.287000
8.867979
9.381771
##ZVALUE=245
1.795888
1.720786
1.855493
1.865625
4.732609
13.798475
46.199560
98.266006
245.592594
401.079655
632.974505
791.719556
891.881585
880.573988
788.551569
612.829924
461.123586
287.384987
189.945698
113.863945
93.009472
87.806582
102.017522
110.993981
111.970901
106.836557
92.489719
78.079700
60.232878
45.772791
32.254457
23.026466
16.953945
14.826655
13.704896
13.904572
14.095902
14.487505
15.112758
15.286803
14.774799
14.924407
14.674664
14.107823
14.237761
13.505816
12.619495
13.227463
12.595654
12.284517
11.256933
10.948777
11.341572
11.048913
10.553598
9.554625
9.663701
9.069443
8.442998
8.999705
8.382797
8.698702
8.868575
8.178949
8.565784
8.938909
8.876920
9.018779
9.703636
10.573864
11.612773
11.955500
11.797547
12.452602
12.427568
11.511445
11.606812
10.826588
10.529757
10.440946
9.984970
9.848475
9.002686
9.649992
8.504987
9.052753
8.993745
8.902550
9.225607
8.820891
8.386970
9.486675
8.347631
8.845925
8.944869
8.400679
##ZVALUE=250
1.185536
1.116991
1.495481
1.363754
1.537800
1.827478
2.667904
7.518530
33.037663
71.519613
182.572603
314.082503
467.555523
687.148571
817.822814
896.053910
860.994458
733.539462
587.550402
376.063585
247.581601
157.465935
94.122887
80.096722
89.359879
103.093982
113.594532
118.052959
113.866925
103.411674
90.392828
69.370866
55.409670
37.815571
30.999780
23.659468
20.803809
19.650459
20.165443
18.719435
18.398762
18.565655
17.824769
17.806888
17.479658
15.787482
15.349984
15.029907
14.535785
13.392568
12.481809
13.047457
12.221932
10.754466
10.314584
10.529757
9.611845
9.449720
8.918643
8.880496
8.709431
8.662939
8.781552
8.072853
8.431673
8.367896
8.698702
8.428693
9.083748
9.443760
9.646416
10.145903
10.599494
10.471940
10.162592
10.323524
9.808540
8.973479
8.783937
8.893609
8.631945
8.040667
8.157492
7.968545
7.653832
7.694960
7.852912
7.436872
8.075833
7.948875
7.798672
7.946491
7.539988
7.860661
7.561445
7.653832
##ZVALUE=255
1.138449
1.160502
1.202822
1.329780
1.344681
1.342893
1.440644
1.496673
1.778603
4.993677
16.406775
54.524541
111.897588
247.364640
384.528041
600.585938
759.714842
907.313824
930.739641
841.831565
706.768036
548.378825
322.368741
200.221539
106.956959
79.016685
74.595809
88.873506
110.672712
123.283863
129.220486
127.597451
120.792985
100.157857
83.358884
61.896443
49.972534
37.299991
32.033920
27.568936
26.002526
24.605989
23.923516
22.092462
21.801591
20.249486
19.520521
18.471479
17.821789
16.236901
16.155839
14.590621
14.104843
13.318658
12.678504
11.541843
11.409521
10.400414
9.913445
9.331703
9.219646
8.440614
8.551478
8.173585
8.278489
8.145571
8.109808
8.461475
8.641481
8.190870
8.828640
9.492636
8.962750
8.969903
9.107590
8.908510
8.462667
7.721782
7.678866
7.228851
7.484555
7.281899
7.009506
7.016659
7.015467
6.982684
7.051826
6.807446
6.811619
6.916523
6.997585
6.675720
6.399751
6.796718
6.645918
7.133484
##ZVALUE=260
1.069903
1.072884
1.094937
1.075864
1.364946
1.198649
1.174808
1.317859
1.416802
1.659989
1.729727
2.444983
7.225871
30.642748
67.844987
168.789625
285.179615
486.156940
662.699938
884.897709
969.501734
967.715979
837.715864
662.899017
422.994494
286.098719
162.435770
102.808475
76.094866
80.108643
103.249550
120.203495
141.140819
148.112774
144.612789
134.904981
114.086866
95.899701
73.083639
58.552623
45.576692
39.047599
33.225417
29.881001
26.956797
26.211739
24.307966
22.998452
21.488667
20.880699
18.245578
17.465949
16.368628
15.596747
14.897585
13.517737
12.379885
12.174845
10.629892
10.473728
9.782910
9.299517
9.010434
8.595586
8.472800
8.389950
8.062720
8.113980
8.430481
8.553863
8.598566
9.044409
8.428693
8.693933
8.581877
8.071661
8.069873
7.750988
7.075667
6.916523
6.891489
6.608963
6.516576
6.341934
6.254911
6.358624
6.507635
6.275773
6.425977
6.486773
6.218553
6.181598
6.537437
6.412864
6.261468
6.176829
##ZVALUE=265
1.059771
0.873804
0.959635
1.153946
0.893474
1.047850
1.106858
1.110435
1.252890
1.327991
1.343489
1.478791
1.721978
1.921654
3.805757
19.622445
47.809482
121.333003
218.957663
418.171883
600.166917
788.781643
976.449847
1012.895703
916.666985
777.942538
558.300018
397.003889
229.717493
146.954656
98.117590
81.773996
91.898441
120.602846
138.218999
155.785680
159.280896
153.798461
141.046643
118.339658
99.461675
76.349974
60.567856
45.259595
37.567616
30.918717
27.670860
25.567412
23.702979
22.166967
20.678639
18.950701
18.148422
15.937686
15.362501
13.852715
13.625622
12.698770
11.855960
10.840893
10.390878
9.801984
9.535551
8.883476
9.037852
8.697510
8.268952
8.465648
8.333921
8.839965
8.644462
8.929968
8.644462
8.439422
7.814765
7.799864
7.635951
7.162690
6.538630
6.381869
6.367564
6.345510
5.997419
5.931854
6.198883
6.282926
5.921721
6.096959
5.896688
6.083846
5.478859
5.721450
5.716681
5.970597
5.699992
5.971789
##ZVALUE=270
0.894666
0.936985
0.979900
0.993609
0.999570
0.987649
0.928640
1.087785
1.270771
1.160502
1.104474
1.160502
1.300573
1.416802
1.408458
2.030730
2.077818
8.643866
25.675893
81.810951
164.281726
290.616751
524.706841
723.347664
946.734548
1015.823483
1013.794541
934.492946
723.001957
539.276004
377.423763
213.305950
133.284926
85.244775
81.456900
100.009441
117.674470
139.558911
149.622560
154.962540
151.145458
134.885907
117.865801
92.590451
72.890520
51.440597
40.032864
31.582713
26.217699
22.288561
20.207763
18.875599
17.342567
16.167760
15.009642
14.263988
12.846589
12.377501
11.832714
10.924935
10.767579
10.222793
9.296536
9.046793
8.745790
8.241534
8.240938
8.655787
8.611679
8.484721
8.670688
8.696914
8.841753
8.327961
8.284450
7.593632
7.526875
7.222891
6.641746
6.181598
6.405711
6.202459
6.427765
5.804896
5.740523
5.993843
5.668998
5.847812
5.447865
5.699992
5.414486
5.274415
5.554557
5.091429
5.468726
5.343556
##ZVALUE=275
0.744462
0.748634
0.752807
0.965595
0.937581
1.110435
0.892878
0.886917
1.008511
1.136661
1.115799
1.135468
1.151562
1.144409
1.222491
1.416802
1.372695
1.423955
1.775622
3.456473
12.978911
52.473545
113.165975
256.185532
417.685509
664.303899
836.500525
1007.905602
1015.794873
1002.569795
885.027647
644.073486
469.957590
266.544819
163.515806
87.149739
65.236688
68.661571
81.441998
103.970766
119.078755
134.282708
138.437748
134.521723
123.350620
100.109577
82.546473
59.340596
45.058727
30.537844
24.128556
17.259717
15.203953
13.035536
12.496710
11.658669
11.272430
10.358691
10.057688
9.530783
9.355545
8.895993
8.729696
8.303523
8.379817
8.100867
8.341670
7.896423
7.974505
8.824468
8.397698
8.369684
8.362532
7.953644
8.073449
7.590652
7.435679
7.020831
6.523728
6.452799
6.177425
5.816817
5.769730
5.634427
5.751848
5.570650
5.604625
5.449653
5.238652
5.335808
5.108714
5.164742
5.054474
5.337596
4.945993
4.798770
##ZVALUE=280
0.719428
0.706911
0.701547
0.705719
0.836849
0.719428
0.783801
0.792742
0.869632
0.872612
1.035929
0.870824
0.914931
1.041889
1.100898
1.273751
1.158714
1.322627
1.293421
1.385808
1.646876
2.053976
8.730888
29.398799
94.805956
177.976489
341.175795
510.922670
756.083727
923.599601
1015.794873
1015.794873
979.364514
755.838752
562.572479
326.887965
198.700428
90.096593
51.653981
38.876534
46.777725
65.975785
83.323717
103.499889
115.273595
123.757720
119.021535
107.186437
92.373490
70.169568
53.540468
35.306811
24.595857
15.581846
11.643767
9.489655
8.771420
8.096695
8.191466
7.672906
7.872581
8.165836
7.722974
8.037686
7.631779
7.501841
7.642508
7.517934
7.741451
8.083582
8.204579
8.560419
7.798672
7.927418
7.515550
7.234812
7.301569
6.692410
6.691813
6.533861
6.098747
6.156564
5.939603
6.071925
6.105900
5.733967
5.583763
5.413890
5.103946
5.242825
4.884601
4.956722
5.102754
4.575849
4.794598
4.818439
##ZVALUE=285
0.587702
0.676513
0.716448
0.715852
0.746846
0.845790
0.792742
0.874996
0.785589
0.946522
0.962615
0.865459
0.985861
0.912547
0.754595
1.055598
1.094937
1.014471
1.077652
1.236796
1.333952
1.154542
1.587868
1.798868
4.305840
14.699697
51.026940
109.361410
243.827701
387.246609
558.676720
813.683867
977.804661
1015.794873
1015.794873
873.567462
692.659020
439.531803
277.912617
130.799413
65.656900
29.028654
25.076866
37.896633
52.061677
74.124932
90.046525
106.750727
113.192797
112.498999
104.704499
88.363886
72.303414
50.238967
36.032796
21.977425
15.048981
10.469556
8.497834
7.767677
7.611513
7.654428
7.805824
7.591844
7.698536
7.979870
7.949471
8.042455
8.298755
8.529425
8.347631
8.152723
8.347631
8.225441
7.893443
7.663965
7.474422
7.236600
6.976724
6.791949
6.499887
6.204844
6.075501
5.683899
5.836487
5.833507
5.713701
5.200505
5.393624
5.121827
5.174875
5.242825
5.104542
4.862547
4.642606
4.618764
##ZVALUE=290
0.634789
0.653863
0.627637
0.672936
0.536442
0.639558
0.806451
0.713468
0.903606
0.786781
0.823736
0.816584
0.897646
0.766516
0.839829
0.927448
1.041889
0.997782
1.057982
1.051426
0.984669
1.157522
1.152754
1.331568
1.543760
1.369715
2.124906
5.777478
28.222799
66.471696
161.515474
287.419558
455.950499
725.551844
905.900002
1015.794873
1015.794873
976.915956
818.189979
560.145974
375.785828
190.440416
96.250772
33.827424
19.894838
23.739934
32.296777
49.046874
64.474940
86.543560
99.224448
109.636784
109.699965
102.291703
89.238882
67.674518
51.691532
33.664703
23.921728
15.275478
11.642575
8.988976
8.093715
7.930994
7.822514
7.999539
8.250475
8.547902
8.581877
9.096861
8.850694
8.756518
8.657575
8.362532
7.959604
7.844567
7.701516
7.277727
7.277727
6.769896
7.071495
6.596446
6.344914
6.436706
6.305575
5.729795
5.770922
5.628467
5.571842
5.369782
5.502701
5.291700
5.032420
4.778504
4.841685
4.668832
##ZVALUE=295
0.668764
0.585914
0.816584
0.740886
0.713468
0.836849
0.691414
0.590682
0.752807
0.824928
0.700951
0.769496
0.701547
0.798702
0.764728
0.839829
0.855923
0.877976
0.796914
1.010895
1.043677
0.920892
1.247525
1.155734
1.399517
1.273751
1.444817
1.536608
1.691580
2.761483
13.003945
39.237738
91.556907
226.297975
373.092890
621.393919
814.854503
1007.270813
1015.829444
1015.829444
924.194455
678.189993
477.166772
250.344872
137.419701
50.642490
23.295879
15.295744
19.529462
31.595826
43.710470
64.126849
78.631639
95.791817
104.095936
105.464458
98.907948
84.167719
69.964528
49.716830
37.161708
23.450851
16.798973
11.831522
9.448528
8.508563
8.163452
8.556843
8.420944
8.605719
8.484721
8.620620
8.914471
8.198619
8.183718
7.949471
7.753968
7.240772
7.529855
7.137656
6.650686
6.597638
6.550550
6.192923
6.196499
6.037951
5.967617
5.505681
5.582571
5.412698
5.171895
5.102754
5.098581
4.875660
4.696846
4.623532
##ZVALUE=300
0.653863
0.737906
0.680685
0.757575
0.728965
0.584722
0.627637
0.779629
0.724792
0.544786
0.716448
0.664592
0.751615
0.651479
0.753999
0.773668
0.853539
0.753999
0.854731
0.885725
0.935793
0.944734
1.068711
1.064539
1.071692
1.236796
1.091957
1.301765
1.353621
1.457930
1.547933
1.806617
5.696416
19.825697
69.186687
140.054822
298.850536
469.300747
731.037855
906.924605
1015.794873
1015.794873
996.007919
840.079784
574.988723
383.077860
194.299817
101.618767
34.132600
16.069412
13.403893
17.450452
28.497577
38.778782
57.449937
72.818995
90.759993
98.201632
100.826621
97.200871
83.235502
70.006847
49.789548
38.015842
24.464726
17.388463
11.794567
9.629726
8.053780
8.146763
8.052588
8.035898
8.138418
7.673502
7.821918
7.528663
7.221699
7.194877
6.897449
6.837845
6.459951
6.370544
6.461740
5.934834
5.979538
5.915761
5.760789
5.445480
5.314946
5.165935
5.083680
5.071759
4.950762
4.660487
4.693866
4.570484
##ZVALUE=305
0.628829
0.600815
0.620484
0.643730
0.676513
0.587702
0.536442
0.571609
0.666976
0.656843
0.617504
0.640750
0.697970
0.698566
0.677705
0.717640
0.723600
0.662804
0.844598
0.806451
0.797510
0.869632
0.763535
0.878572
0.986457
0.984669
0.977516
1.115799
1.164675
1.168847
1.289845
1.368523
1.411438
1.627803
3.002882
10.211468
44.628978
99.007487
229.507685
379.769802
568.936467
834.645629
999.196768
1015.794873
1015.794873
893.377662
712.447762
463.865995
292.039514
161.366463
59.406757
24.994612
10.901690
11.433959
17.616749
25.096536
39.180517
52.522421
70.532560
82.047582
93.356967
96.123815
89.980960
81.504583
64.022541
51.237941
34.452677
24.405718
15.232563
11.330843
8.864999
7.818937
7.494688
7.219911
6.870627
6.474853
6.300807
6.138682
6.085634
6.133914
5.928874
5.836487
5.974770
5.632639
5.398989
5.539656
5.414486
5.156994
5.033612
4.902482
4.999638
4.856586
4.679561
4.559755
4.319549
4.462600
##ZVALUE=310
0.506639
0.538826
0.655651
0.544786
0.605583
0.565648
0.674725
0.545979
0.601411
0.548959
0.563860
0.549555
0.684857
0.635982
0.697970
0.711679
0.755787
0.633597
0.647902
0.870824
0.804663
0.936985
0.835657
0.745654
0.938773
0.841618
0.884533
0.834465
1.056790
1.195669
1.058578
1.073480
1.143813
1.279712
1.288652
1.618862
1.645684
5.682707
18.767715
65.218806
134.099722
290.020704
456.962585
718.797445
915.576816
1015.799642
1015.799642
1011.242867
873.556733
605.544448
411.036611
208.677649
109.036565
36.754608
15.018582
9.067655
10.669827
15.588999
21.900535
34.127831
46.110749
63.646436
75.328946
87.029934
90.903640
86.741447
77.710748
63.640475
50.101876
33.318996
24.383664
15.451908
10.951757
7.843971
6.676912
5.953908
5.751848
5.617738
5.408525
5.213618
5.374551
5.202889
5.030632
5.108714
5.024672
4.954934
4.721880
4.744530
4.871488
4.748702
4.632473
4.577637
4.301667
4.318953
4.109740
4.105568
##ZVALUE=315
0.466704
0.520945
0.585914
0.506639
0.689626
0.527501
0.721812
0.521541
0.500679
0.684857
0.586510
0.559688
0.537634
0.452995
0.536442
0.549555
0.582933
0.686646
0.710487
0.647902
0.683665
0.419617
0.796914
0.732541
0.757575
0.730753
0.753999
0.838637
0.796914
0.925660
0.897646
0.967979
0.902414
1.072884
1.085997
1.323819
1.393557
1.551509
1.538992
2.906919
9.424686
39.580464
90.377927
215.683579
366.011858
632.370710
826.049447
1012.652516
1015.794873
1015.794873
973.852873
726.711750
527.729392
287.742019
157.416463
55.402517
22.008419
8.809566
8.028746
9.766817
13.112426
20.656586
29.347539
43.431520
55.834651
72.075725
79.955459
84.686875
82.128644
72.521567
61.855912
46.385527
34.153461
20.952821
14.360547
9.194613
6.634593
5.545616
5.108714
4.718900
4.743934
4.675984
4.605651
4.626513
4.633665
4.362464
4.399419
4.414916
4.738569
4.282594
4.291534
4.168749
4.105568
4.072785
3.963709
3.992915
##ZVALUE=320
0.652671
0.686646
0.556707
0.605583
0.398755
0.554919
0.499487
0.618696
0.599623
0.537634
0.554919
0.626445
0.504851
0.624657
0.439882
0.502467
0.523925
0.638962
0.677705
0.624657
0.641942
0.715852
0.786781
0.842810
0.849962
0.751615
0.723600
0.824928
0.840425
0.770688
0.799894
0.768900
0.813603
0.986457
1.049638
0.997782
1.000762
1.164675
1.245737
1.222491
1.335740
1.874566
4.164577
21.712780
57.784915
158.013701
273.425579
484.917760
680.975914
940.475464
1015.791893
1015.791893
1015.791893
851.264596
645.303726
373.197794
217.430592
89.591742
38.131475
11.492968
7.064939
6.813407
8.075833
11.555552
16.425848
27.740598
37.196875
52.140951
64.008832
75.645447
78.852773
77.561736
70.268512
56.738853
44.375658
29.762983
20.978451
13.043880
9.014606
6.008744
4.855990
4.538894
4.228950
4.095435
4.275441
4.223585
4.088879
3.937483
4.037619
4.165769
4.081726
3.914833
4.025698
4.031658
4.061460
3.829598
##ZVALUE=325
0.621676
0.490546
0.447631
0.410676
0.550747
0.573993
0.481606
0.501871
0.470877
0.578761
0.620484
0.663996
0.394583
0.520945
0.633597
0.622869
0.637770
0.592470
0.681877
0.628829
0.587702
0.770688
0.651479
0.582933
0.660419
0.679493
0.758767
0.695586
0.845790
0.729561
0.646710
0.691414
0.819564
0.720620
0.869632
1.079440
0.917912
0.975728
1.179576
0.988841
1.160502
1.269579
1.320839
1.551509
2.328753
13.719797
37.559867
103.861690
196.802020
395.361781
583.185554
847.353935
1004.805565
1015.795469
1015.795469
925.639868
726.431608
460.422635
283.216834
125.309825
57.410598
16.448498
7.568598
5.822778
6.108880
7.489920
10.146499
16.735792
24.791956
37.836432
48.948526
62.020421
69.628954
74.507594
72.459579
62.913895
53.433776
39.932728
29.491782
18.579960
12.400746
7.719994
5.779862
4.618764
4.150867
4.067421
4.110932
3.666878
3.841519
3.716946
3.559589
3.661513
3.723502
3.775954
3.747940
3.558993
##ZVALUE=330
0.457764
0.556707
0.504851
0.610948
0.612736
0.562668
0.682473
0.514984
0.647902
0.502467
0.537634
0.431538
0.583529
0.477433
0.503659
0.648499
0.624657
0.586510
0.660419
0.681877
0.555515
0.579953
0.727773
0.536442
0.517964
0.799894
0.649691
0.735521
0.534654
0.750422
0.824928
0.703931
0.845790
0.885725
0.901818
0.808835
0.737906
0.860691
1.095533
0.918508
0.909567
1.190901
1.072884
1.252890
1.362562
1.475811
1.555681
5.746484
18.853545
66.623688
136.016607
294.603705
461.447835
727.671981
923.987031
1015.793681
1015.793681
999.201536
836.087465
562.765002
373.034477
178.128481
88.528991
28.874874
10.714531
5.886555
5.552769
5.864501
6.962419
10.564923
15.009642
23.451447
32.809973
46.772957
55.953860
65.779686
68.985820
66.516995
60.421824
49.051642
38.310885
25.789738
19.031763
12.398958
8.982420
5.985498
4.782677
4.115701
3.865957
3.925562
3.884435
3.721714
3.655553
3.614426
3.610849
3.748536
##ZVALUE=335
0.623465
0.691414
0.406504
0.635982
0.706911
0.465512
0.622869
0.683665
0.588894
0.778437
0.691414
0.762939
0.695586
0.757575
0.641942
0.641942
0.759959
0.566840
0.668764
0.713468
0.674725
0.670552
0.810623
0.859499
0.772476
0.828505
0.901818
0.779629
0.880957
0.711679
0.828505
0.858903
0.747442
0.826716
0.877976
0.836849
0.842810
0.959635
0.953674
1.068711
1.010895
1.127720
1.020432
1.085997
1.314878
1.398921
1.280904
1.521707
1.582503
2.820492
9.295940
39.650798
88.731647
213.527679
365.188718
632.585883
842.279792
1015.952826
1015.952826
1015.952826
939.393640
673.578978
472.342968
253.519416
132.573843
43.112636
16.950965
6.664991
5.585551
5.584955
5.756617
6.993413
9.252429
14.865994
21.630526
32.842755
41.854978
52.899718
60.631633
64.978600
62.707663
55.737495
48.160553
37.642717
29.113889
19.308925
13.168454
8.683801
6.504655
5.057454
4.296899
4.118681
3.997684
3.854632
3.580451
3.708601
##ZVALUE=340
0.702739
0.765920
0.683665
0.701547
0.556707
0.640750
0.620484
0.586510
0.808835
0.593662
0.677705
0.675917
0.683665
0.775456
0.734925
0.670552
0.708699
0.584722
0.743866
0.687838
0.630617
0.677705
0.739694
0.728965
0.689626
0.833869
0.774860
0.836849
0.768900
0.835657
0.869632
0.691414
0.719428
0.896454
0.811815
0.878572
0.980496
1.017451
0.778437
0.974536
0.990629
1.032948
1.208782
1.057982
1.181960
1.224875
1.203418
1.343489
1.285672
1.364946
1.460910
1.893640
4.579425
23.608804
60.896873
162.755847
296.576619
532.050729
723.510981
958.182812
1015.982628
1015.982628
991.140008
767.414570
560.400486
304.784775
171.281695
66.795945
24.874806
7.900596
5.984902
5.338788
5.366802
5.661845
6.313920
9.151697
13.271570
21.392703
29.170513
41.082501
50.305724
58.072805
60.718656
59.474707
54.884553
45.611858
37.386417
26.775599
20.058751
12.933612
8.732677
5.974770
5.036592
4.156828
4.001856
3.741980
##ZVALUE=345
0.541806
0.436902
0.504851
0.468493
0.495911
0.401735
0.472665
0.482798
0.375509
0.428557
0.546575
0.469685
0.487566
0.524521
0.474453
0.539422
0.440478
0.524521
0.475645
0.685453
0.572801
0.551939
0.560880
0.554919
0.576973
0.697970
0.644922
0.550747
0.586510
0.686646
0.745654
0.761747
0.640750
0.580549
0.589490
0.648499
0.487566
0.719428
0.680685
0.635982
0.698566
0.717640
0.825524
0.860691
0.884533
0.854731
0.834465
0.871420
0.886917
0.991821
1.030564
1.258850
1.164675
1.315475
2.333522
12.779832
37.564635
109.021664
206.558704
405.924916
592.227578
854.666829
1001.518965
1015.794873
1015.794873
850.325823
655.622482
403.042436
232.804418
90.762973
38.393736
11.681914
6.572604
5.383492
5.211830
5.014539
4.964471
6.054640
7.991791
12.866855
18.203855
28.059483
35.827756
44.770837
51.182508
55.351853
55.329800
50.567985
45.080781
35.344958
27.447939
18.324852
12.868643
7.969737
5.989671
4.550815
##ZVALUE=350
0.502467
0.488758
0.466704
0.446439
0.598431
0.521541
0.579953
0.478625
0.511408
0.536442
0.436902
0.469685
0.533462
0.565648
0.456572
0.673532
0.428557
0.508428
0.458956
0.453591
0.588894
0.443459
0.563860
0.567436
0.588894
0.448823
0.524521
0.651479
0.586510
0.655651
0.517964
0.624657
0.463724
0.491738
0.571609
0.662804
0.532866
0.558496
0.618696
0.660419
0.716448
0.737906
0.723600
0.819564
0.759959
0.698566
0.780821
0.775456
0.946522
1.054406
0.993609
0.984669
1.102686
1.009703
1.243949
1.286864
1.567602
6.148815
20.913482
71.960688
145.389438
314.393640
483.235717
732.272863
913.249850
1015.796661
1015.796661
931.475759
743.863583
465.885997
292.150974
135.113597
59.778690
15.456676
6.675720
5.111694
4.781485
4.625916
4.303455
4.580617
5.487800
7.881522
10.970831
16.541481
22.582412
31.715631
38.917661
46.778917
49.955845
50.965548
47.755837
40.843487
34.052730
25.090575
18.928647
12.510419
##ZVALUE=355
0.530481
0.367761
0.459552
0.507832
0.431538
0.477433
0.421405
0.363588
0.487566
0.535846
0.403523
0.372529
0.562668
0.436902
0.594854
0.490546
0.636578
0.556707
0.405908
0.550747
0.489950
0.624657
0.473857
0.500679
0.680685
0.584722
0.588894
0.672936
0.605583
0.721812
0.684857
0.669956
0.705719
0.532866
0.676513
0.528693
0.684857
0.489950
0.568628
0.725985
0.641942
0.623465
0.726581
0.664592
0.809431
0.856519
0.713468
0.878572
0.801682
0.874996
0.863671
0.751615
0.854731
1.060963
1.039505
1.044869
1.255870
1.297593
1.575947
3.089905
10.791421
45.385957
99.854469
226.763487
380.282998
638.961792
826.846957
1003.574729
1015.788913
972.001553
820.884705
572.705865
372.903943
169.393420
79.396963
22.343993
8.518696
5.043745
4.530549
4.335642
4.083514
4.196763
4.487634
4.910827
6.267428
9.542704
13.396740
20.316839
26.756525
34.350753
40.331483
45.565963
46.667457
44.438839
40.044785
32.583475
##ZVALUE=360
0.340939
0.269413
0.271797
0.318885
0.452995
0.363588
0.391603
0.395775
0.340939
0.516772
0.327826
0.344515
0.436902
0.432730
0.447631
0.595450
0.498891
0.571609
0.319481
0.533462
0.364780
0.423789
0.525713
0.531673
0.520945
0.337958
0.475645
0.341535
0.432730
0.365973
0.315905
0.584722
0.316501
0.424981
0.637770
0.466704
0.533462
0.382662
0.425577
0.526905
0.556707
0.597835
0.676513
0.499487
0.607967
0.604987
0.587702
0.704527
0.642538
0.741482
0.617504
0.732541
0.743866
0.833869
1.050830
0.946522
0.993609
0.930429
1.177788
1.253486
1.293421
1.850724
4.678965
22.568703
59.175491
159.557462
280.410647
498.613715
700.687766
933.268666
1015.662551
1013.535857
911.312699
661.163926
459.238887
234.586596
121.670961
42.365789
15.412569
5.456805
4.567504
4.270673
4.025698
4.041791
3.852844
3.570914
4.032850
5.344748
7.196665
10.896921
15.685558
23.139715
28.945804
36.141872
40.381551
42.116642
##ZVALUE=365
0.343919
0.312924
0.466704
0.308752
0.334978
0.436902
0.374913
0.374913
0.462532
0.331998
0.353456
0.496507
0.367761
0.425577
0.536442
0.470877
0.536442
0.446439
0.330806
0.271797
0.317693
0.344515
0.469685
0.519753
0.526905
0.502467
0.508428
0.486970
0.411868
0.547767
0.452995
0.441670
0.539422
0.617504
0.548959
0.409484
0.565648
0.528693
0.553727
0.706911
0.547767
0.591874
0.661612
0.569820
0.666976
0.567436
0.813603
0.554919
0.591874
0.623465
0.776649
0.549555
0.700951
0.771880
0.795722
0.869632
0.795722
0.830889
0.873804
1.153946
1.083612
1.282692
1.316667
1.532435
2.301931
12.243986
35.438538
102.423429
201.066732
407.614708
588.360429
823.989511
969.972610
1015.725732
963.599682
751.749873
556.491017
320.543647
175.073743
61.835647
22.858977
6.448627
4.410744
4.004836
3.900528
3.720522
3.479719
3.292561
3.245473
3.558993
4.389882
6.297827
9.082556
13.932586
18.688440
25.588870
##ZVALUE=370
0.527501
0.507832
0.565648
0.453591
0.348687
0.503659
0.370741
0.370741
0.496507
0.538826
0.530481
0.583529
0.448823
0.589490
0.628829
0.434518
0.483990
0.454783
0.516772
0.623465
0.593662
0.560880
0.563860
0.555515
0.537634
0.717640
0.570416
0.624657
0.499487
0.583529
0.555515
0.492930
0.497699
0.549555
0.514984
0.643730
0.692606
0.646710
0.742674
0.629425
0.658631
0.827909
0.548959
0.622869
0.682473
0.647902
0.682473
0.740886
0.660419
0.750422
0.845790
0.814795
0.739694
0.894666
0.781417
0.749826
0.769496
0.837445
1.050830
1.025796
0.955462
1.106858
1.223683
1.277924
1.343489
1.515746
1.910925
6.088614
20.962954
74.728727
149.830580
310.716629
489.435792
751.582980
911.999941
1015.305519
989.102721
826.246738
640.501976
378.436446
220.678449
86.769462
38.142800
11.481643
5.251765
3.984571
3.811717
3.546476
3.374815
3.152490
3.187656
3.090501
3.163815
4.215837
5.447865
7.887483
##ZVALUE=375
0.366569
0.417829
0.449419
0.472665
0.309944
0.428557
0.368953
0.422597
0.314713
0.514984
0.445843
0.374913
0.531673
0.476837
0.356436
0.357628
0.500679
0.641942
0.534654
0.395775
0.462532
0.581741
0.519753
0.612736
0.528693
0.618696
0.507832
0.624657
0.512600
0.511408
0.538826
0.492930
0.579953
0.610948
0.571609
0.623465
0.435710
0.434518
0.386834
0.503659
0.649691
0.525713
0.566840
0.574589
0.641942
0.650883
0.433922
0.709891
0.676513
0.637770
0.558496
0.655651
0.709891
0.707507
0.725985
0.618696
0.728965
0.714660
0.868440
0.755787
0.749826
1.008511
0.870824
0.835657
0.888705
1.079440
1.185536
1.242757
1.470447
3.303885
10.699630
43.028593
98.523498
238.840580
394.205451
643.543005
818.364024
977.087617
1006.024480
901.081562
737.724900
480.780602
310.706496
145.965815
71.349740
21.281838
7.941723
4.076958
3.596544
3.331900
3.345609
3.018975
2.834797
2.731681
2.751946
2.938509
##ZVALUE=380
0.435710
0.340939
0.292659
0.383854
0.514984
0.542998
0.432730
0.308752
0.459552
0.462532
0.467896
0.509620
0.453591
0.399947
0.545979
0.374913
0.408888
0.412464
0.397563
0.402927
0.465512
0.450611
0.518560
0.424981
0.431538
0.553727
0.587702
0.502467
0.510812
0.511408
0.545979
0.503659
0.384450
0.394583
0.490546
0.461936
0.569820
0.512600
0.408888
0.641942
0.444651
0.515580
0.667572
0.509620
0.522733
0.597835
0.604987
0.558496
0.639558
0.660419
0.550747
0.632405
0.614524
0.590682
0.607967
0.650883
0.665784
0.562668
0.620484
0.603795
0.791550
0.777841
0.774860
0.773668
0.785589
0.946522
1.065731
1.083612
1.309514
1.348853
1.635551
1.945496
5.544424
28.365850
70.183873
181.260705
313.281417
535.913706
725.744963
928.339958
995.201468
934.448838
809.143782
597.288013
417.987704
215.672851
111.353993
37.319660
13.817549
4.435778
3.553629
3.066659
3.073812
2.930760
2.879500
2.632737
##ZVALUE=385
0.461936
0.301600
0.343919
0.443459
0.448823
0.420809
0.398755
0.406504
0.490546
0.590682
0.480413
0.306964
0.480413
0.520945
0.260472
0.298619
0.563860
0.504851
0.393987
0.480413
0.480413
0.374913
0.347495
0.385642
0.411868
0.493526
0.429749
0.403523
0.585914
0.505447
0.672936
0.633597
0.639558
0.539422
0.659823
0.706911
0.646710
0.617504
0.597835
0.455976
0.578761
0.705719
0.618696
0.602603
0.501871
0.638962
0.521541
0.619888
0.632405
0.649691
0.500679
0.550747
0.548959
0.642538
0.475645
0.637770
0.609756
0.497699
0.544786
0.683665
0.637770
0.761747
0.675917
0.823736
0.725985
0.909567
0.944734
1.032948
1.027584
1.311898
1.151562
1.213551
1.523495
1.331568
3.154874
10.635853
44.094920
104.074478
244.583488
403.300524
651.034713
814.967752
954.361558
983.569622
890.066624
744.136572
504.601598
335.670710
158.512592
77.723861
24.006963
7.840991
3.497601
3.265738
2.886653
2.850890
##ZVALUE=390
0.323653
0.465512
0.476837
0.390410
0.385642
0.476837
0.436902
0.408888
0.302792
0.323653
0.386834
0.476837
0.412464
0.364780
0.364780
0.436902
0.404716
0.489950
0.549555
0.352859
0.416636
0.446439
0.444651
0.397563
0.474453
0.514984
0.491738
0.488758
0.476837
0.550747
0.461936
0.575781
0.764728
0.695586
0.658631
0.619888
0.697970
0.645518
0.713468
0.647902
0.636578
0.668764
0.674725
0.717640
0.617504
0.536442
0.597835
0.595450
0.599623
0.484586
0.524521
0.577569
0.586510
0.606775
0.655651
0.458956
0.595450
0.660419
0.693798
0.564456
0.730753
0.631809
0.697970
0.884533
0.860691
0.852942
0.928640
0.944734
1.170635
1.114607
1.096725
1.025796
1.006722
1.172423
1.248717
1.299977
1.686811
7.231832
24.759769
85.994005
173.409581
360.185504
527.359843
748.099685
894.196630
998.522639
977.802873
830.587745
661.888719
428.195000
258.729458
108.034611
47.562718
11.735559
4.688501
3.143549
##ZVALUE=395
0.351667
0.298619
0.312924
0.494719
0.320673
0.331998
0.413656
0.418425
0.376701
0.505447
0.429749
0.416636
0.412464
0.365973
0.491738
0.468493
0.376701
0.344515
0.299811
0.435710
0.384450
0.412464
0.562668
0.458956
0.434518
0.594854
0.574589
0.718832
0.660419
0.661612
0.729561
0.775456
0.866652
0.841618
0.764728
0.797510
0.690818
0.872612
0.652671
0.759959
0.838637
0.739694
0.802875
0.819564
0.681877
0.633597
0.652671
0.562668
0.457764
0.754595
0.581741
0.621676
0.550747
0.703931
0.558496
0.628829
0.628829
0.478625
0.648499
0.575781
0.604987
0.753999
0.747442
0.742674
0.639558
0.857711
1.033545
0.891685
0.971556
1.090765
1.176596
1.020432
1.114607
1.036525
0.751615
1.163483
1.143813
1.214743
1.294613
4.047751
15.275478
59.553981
121.714473
253.333449
403.077006
648.499727
823.361874
980.018973
1009.427905
919.867754
762.716532
509.082675
333.354473
154.130459
73.705912
22.547841
##ZVALUE=400
0.279546
0.327826
0.499487
0.384450
0.404716
0.348687
0.372529
0.343919
0.318885
0.444651
0.329614
0.430942
0.448823
0.343919
0.435710
0.363588
0.457764
0.469685
0.365973
0.404716
0.477433
0.415444
0.467896
0.484586
0.501871
0.465512
0.321865
0.604987
0.583529
0.661612
0.738502
0.784993
0.710487
0.879765
0.836849
0.956655
0.807643
0.730753
0.776649
0.803471
0.758767
0.872612
0.797510
0.747442
0.777841
0.757575
0.664592
0.622869
0.514984
0.723600
0.695586
0.574589
0.664592
0.545979
0.616908
0.673532
0.628829
0.623465
0.669956
0.743866
0.575781
0.714660
0.569820
0.870824
0.863671
0.923872
0.844598
0.869632
0.992417
0.919700
0.959635
0.943542
1.074672
0.898838
0.876784
0.914931
0.910759
0.956655
0.983477
1.121759
1.234412
2.338886
7.531643
33.484697
77.535510
187.399983
313.102007
514.413714
694.260597
898.553729
974.874496
933.965445
818.987489
606.153011
426.009893
227.993727
##END
