##TITLE=FAAI0851
##FORMAT=SPECTACLE-ASCII V-1.2
##DATA TYPE=ULTRAVIOLET SPECTRUM
##SECOND TYPE=ULTRAVIOLET SPECTRUM
##DATE=05/24/18
##TIME=16:35:48
##SPECTROMETER/DATA SYSTEM=SPECTACLE
##XUNITS=NM EM
##YUNITS=ENERGY
##YFACTOR=1
##FIRSTX=220
##LASTX=410
##NPOINTS=96
##3DDATA=Equidistant
##ZUNITS=NM EX
##FIRSTZ=210
##LASTZ=400
##ZPOINTS=39
##XYDATA=(Y..Y)
##ZVALUE=210
9.143949
7.443428
7.494688
7.965565
7.196665
7.583499
6.985664
5.985498
4.549623
4.670620
4.386902
3.884435
3.396869
3.625751
4.240870
4.064441
4.564524
4.227757
4.632473
4.304647
4.851818
5.265474
5.399585
6.389618
6.917715
9.754896
11.928678
15.316606
19.915700
23.596883
26.292801
31.915903
33.095479
33.612847
36.138892
36.587715
37.223697
35.485625
37.261844
32.299757
34.227967
31.436682
31.618476
27.776957
26.061535
23.751855
23.289919
20.585656
19.456744
20.419955
17.108917
16.623735
17.629862
16.406775
15.455484
13.220906
13.148785
12.541413
12.044907
11.264682
11.528730
10.642409
11.308789
11.218786
11.484623
12.170672
13.030767
16.504526
15.736818
18.300414
20.770431
22.798777
25.653839
24.431944
27.811527
28.837919
28.181672
24.873614
24.879575
21.499991
19.208789
16.259551
14.800429
13.710856
11.778474
9.523630
10.126829
9.138584
8.200407
9.538531
10.068417
10.319948
11.341572
14.371872
14.639497
17.591715
##ZVALUE=215
28.803945
26.687980
23.601651
16.862750
16.308427
15.473962
13.605952
14.827847
13.210773
12.639761
11.275411
9.851456
6.392598
6.725788
4.747510
3.723502
3.953576
4.596710
4.697442
4.799962
4.566908
4.885793
5.493760
6.329417
7.303953
11.120439
14.895797
22.078753
27.263761
34.825802
37.727952
47.841668
53.869486
53.416491
55.512786
58.423877
58.396459
55.387616
54.526925
54.391623
48.466921
46.821833
42.032599
40.225983
37.680864
35.727620
33.873916
30.734539
28.207898
27.260780
23.724437
20.319819
20.507574
21.139979
18.587708
17.133951
17.481446
13.874769
15.542507
14.188886
14.354587
14.043450
14.936924
13.474822
13.346672
12.762547
13.729930
13.794899
14.712811
19.045472
18.871427
20.907521
21.103621
20.758510
24.007559
22.303462
21.674633
20.720959
18.456578
16.047955
15.820861
12.093782
10.787845
8.976460
9.334683
9.021759
8.119941
8.435845
7.715821
7.590652
7.421970
6.576777
7.537603
9.225607
8.313656
9.637475
##ZVALUE=220
86.612701
83.723664
79.065561
66.095591
55.059791
41.360855
34.263730
29.254556
26.494861
26.820898
26.568770
25.604963
22.754669
19.683838
15.597939
11.853576
8.398890
6.303787
5.321503
5.035996
4.052520
4.791617
5.415678
5.938411
8.735657
14.383793
18.008947
28.819442
36.157966
43.340921
54.550767
62.076449
68.365932
74.615479
78.494549
78.283548
78.753829
74.846745
72.897673
71.890950
71.078539
61.567426
59.723854
52.607656
52.605867
46.723485
44.492483
39.490461
37.575960
33.492446
30.680895
28.971434
28.128624
24.337769
22.081733
20.887852
19.126534
19.542575
17.409921
15.278459
15.052557
14.772415
14.236569
12.395978
13.205409
13.165474
13.596416
13.895631
14.842749
15.793443
16.716719
18.133521
17.844439
18.851757
19.344687
17.955899
17.006993
16.119480
14.269948
13.029575
12.388825
11.350513
11.137724
9.518862
9.209514
8.119941
7.132888
8.063912
7.372499
7.628798
7.668734
7.823706
7.034540
7.265806
6.756783
7.444620
##ZVALUE=225
124.674439
134.064555
155.470967
169.859529
162.248611
142.681003
118.689537
86.947680
65.636635
54.493546
45.154691
43.676496
46.001673
46.360493
41.323900
37.968755
29.590726
23.421645
15.846491
10.306835
6.642938
5.377531
5.407929
6.809831
8.474588
13.278723
18.438697
26.611686
34.832954
44.021606
54.022670
61.817765
68.392754
73.320866
77.774525
80.412626
77.680945
76.937675
77.158809
71.526766
71.062446
65.254569
62.509775
55.624843
51.234961
46.219826
43.810606
39.983988
37.787557
33.546686
32.072663
29.989481
27.840734
24.292469
23.890734
21.109581
20.353794
17.887950
17.922521
16.544461
15.564561
13.821721
14.992952
13.984442
13.582706
13.002753
13.887882
13.601780
14.792681
15.459657
17.181635
16.183853
16.386509
16.503930
17.011762
15.413761
16.301870
13.947487
12.825727
12.171865
11.301637
10.361671
10.161996
9.268522
8.782744
8.088946
8.355975
8.204579
7.976890
7.015467
6.913543
7.821918
7.564425
7.144809
7.334948
7.796884
##ZVALUE=230
91.633797
99.328756
148.024559
217.124820
253.739953
291.569829
292.124748
262.661576
225.562453
176.788568
117.084980
83.609819
68.715811
64.717531
66.687465
70.406795
71.169734
63.148737
57.535768
41.950941
30.318499
19.052625
13.433695
8.772612
7.487535
10.717511
12.992620
18.950701
22.034645
30.063987
32.749772
41.347742
44.116974
47.327876
49.774647
52.405596
51.835775
49.687624
50.441623
47.782660
46.188831
43.336749
39.073825
36.429763
35.376549
33.552647
31.450987
28.613806
25.602579
23.658872
23.651719
19.918680
20.057559
19.402504
17.577410
16.096830
16.882420
15.219450
14.453530
15.239716
14.560819
12.766719
12.331605
12.535453
12.594461
12.097955
12.373924
13.203621
13.211966
13.744831
14.609694
15.645623
14.947653
15.939474
15.218854
15.953779
14.761686
13.380647
12.797713
11.421442
11.165738
11.007786
10.059476
8.979440
9.174943
8.500814
8.683801
8.453727
8.703470
8.211732
8.743405
7.992983
8.599758
8.691549
8.048415
8.308887
##ZVALUE=235
23.687482
25.982857
65.534711
115.517974
186.491609
284.975767
352.488756
422.319770
429.575443
403.136015
342.038870
253.736973
186.576843
120.386481
93.901753
82.256794
81.814528
90.920925
94.846487
88.846684
81.194639
68.626404
47.905445
34.146905
21.676421
15.137792
12.631416
11.595488
12.482405
14.553666
17.735958
18.621683
20.782948
21.743774
22.842884
23.989677
24.417639
24.403930
22.688508
23.691654
22.583604
21.651983
21.406412
20.120740
20.100474
18.158555
18.273592
17.006993
16.037822
15.351772
14.843941
13.285875
13.922453
13.026595
12.680888
12.712479
12.405515
12.417436
11.778474
11.434555
11.516809
10.364652
10.843873
11.349916
10.474920
11.049509
11.131763
11.273623
12.303591
12.510419
13.608932
14.218688
14.186502
14.302731
14.561415
14.705658
13.953447
12.963414
12.174845
12.784600
11.738539
10.019541
9.922981
9.672642
9.618998
9.387732
9.273887
9.866953
9.202957
9.533763
8.874536
8.686781
8.366704
9.002686
8.848906
7.652640
##ZVALUE=240
1.854897
2.051592
7.988811
22.959709
63.205957
113.366842
213.530660
304.344893
433.622599
502.162576
539.524555
517.227650
456.722975
350.284576
264.259577
165.628791
120.780468
91.639757
88.514686
95.323920
104.540586
106.418729
99.817514
88.327527
67.569613
54.110885
36.666989
26.380420
17.179847
12.804866
10.947585
11.329651
12.107491
12.592673
12.755990
13.649464
14.627576
14.756918
15.622973
14.919639
15.402436
14.929771
14.877915
14.850497
15.071630
15.078783
13.610721
13.963580
13.428926
12.037754
12.522936
11.809468
11.293888
11.766553
11.221766
10.493994
10.542870
10.456443
9.566545
9.981990
10.050535
10.001659
9.233952
9.122491
9.336472
9.237528
9.888411
10.801554
10.301471
11.890531
11.867881
12.619495
12.275577
12.075901
12.833476
12.519956
12.285709
11.720657
11.643767
11.161566
10.636449
10.192990
9.895563
9.802580
9.211898
8.945465
9.392500
9.336472
9.193420
9.078979
8.683801
9.215474
8.844733
8.817911
8.278489
8.322597
##ZVALUE=245
1.392961
1.361966
1.439452
1.459718
4.304647
14.144778
46.383739
92.215538
197.022557
295.190811
442.592502
538.700819
594.390631
600.906014
559.275746
448.711514
351.321697
233.894587
160.190463
102.090836
85.608959
85.778832
101.851821
111.278892
113.228559
106.110573
93.130469
78.339577
58.030486
45.004487
32.593608
22.161603
16.602874
14.446974
14.081597
14.574528
15.466809
15.739799
16.369820
15.585423
16.642809
15.665889
16.348958
16.335845
15.630722
14.664531
15.569925
14.242530
13.956428
13.207793
13.049841
12.313724
12.013912
11.371970
10.370612
10.568500
10.157824
9.901524
9.635687
8.991957
8.481741
8.508563
7.793903
8.223653
7.978678
8.818507
9.222627
9.040833
9.486675
9.385943
9.933710
10.457635
10.698438
11.232495
11.556745
10.666847
10.996461
10.440946
9.382963
9.440780
9.455681
8.881688
9.015799
8.915663
8.584857
8.678436
8.158684
8.671880
8.611679
8.245707
7.606745
7.663965
7.719994
8.413792
7.663965
8.149743
##ZVALUE=250
1.288652
1.053810
1.270771
1.355410
1.250505
1.336932
2.107620
7.015467
32.198429
68.973899
162.658691
260.256529
371.184945
521.935821
602.717996
660.175681
643.400550
554.194450
455.054641
307.205915
206.936598
133.960843
84.918737
77.242851
88.434815
103.241801
114.559531
118.291974
113.031864
103.493929
88.848472
70.452690
56.597590
39.069653
31.091571
24.501681
22.676587
21.887422
21.146536
21.367669
20.677447
20.316839
19.833446
20.087957
19.051433
18.793941
17.417669
17.098784
16.586781
15.224814
14.629960
14.255643
12.808442
12.238622
11.541843
10.702610
10.588765
10.166764
9.274483
8.981824
8.381605
7.738471
7.634759
7.578731
7.611513
7.675886
7.878542
8.533597
8.610487
8.694530
9.349585
9.443760
9.661913
9.984970
9.986758
9.297729
8.793473
8.958578
8.256435
8.209944
8.373857
8.363724
7.207990
7.520914
7.515550
7.518530
7.450581
7.204413
7.488728
7.086992
6.962419
7.191896
7.233620
7.163882
7.225871
7.159710
##ZVALUE=255
1.019835
1.067519
1.017451
1.068711
1.165867
1.091957
1.238585
1.465678
1.435876
3.520846
19.653440
49.106479
100.110769
212.127566
322.617888
486.039519
596.760511
694.136620
712.510943
653.359890
558.494925
435.133576
269.051790
170.627832
95.601678
73.785782
74.052811
87.409616
109.412670
122.767687
129.358768
130.149722
122.708678
103.132725
86.370707
64.672828
51.570535
39.530993
33.625960
29.296875
27.798414
26.246905
25.586486
25.342703
23.559928
21.956563
20.741820
19.772649
19.406676
17.445683
16.385913
14.761686
14.595985
13.569593
12.478828
11.827946
11.111498
10.434985
9.452701
9.676814
8.948445
8.512735
8.029938
7.632971
7.594824
7.922649
7.190704
7.468462
7.962584
8.215904
8.096695
8.125901
8.174777
8.258820
8.512735
7.823706
7.843971
7.650852
7.468462
6.922483
6.681681
6.714463
6.305575
6.050467
6.428957
6.882548
6.098747
6.383657
6.384850
6.584525
6.406903
6.286502
6.263852
6.342530
6.057620
6.693602
##ZVALUE=260
0.845790
0.955462
1.040697
1.030564
1.004934
0.960827
1.039505
0.982881
1.120567
1.345873
1.328588
2.213717
6.409883
29.800534
68.126917
159.793496
260.874629
425.328612
556.350946
703.960657
766.784549
766.260028
665.687919
537.936687
354.993939
240.891576
141.598582
93.723536
73.147416
80.235004
96.072555
123.944879
139.096975
151.591897
149.317980
136.567950
120.964646
96.993446
79.045892
60.404539
48.957467
39.577484
34.818649
30.707717
29.977560
27.199984
25.756955
23.749471
22.754669
20.889640
19.332767
18.178821
16.466975
15.936494
14.172792
13.404489
12.881756
11.350513
10.656714
9.894967
9.569526
8.746982
8.506775
8.042455
8.020997
7.459521
7.478595
7.399917
7.413626
7.689595
7.475615
7.971525
7.575750
7.609725
7.342696
7.555485
6.887913
6.921887
6.555915
6.049871
6.506443
6.124973
6.099939
6.091595
6.360412
5.988479
5.533695
5.602837
5.651712
5.532503
5.620718
5.512834
5.880594
5.514622
6.132722
5.896688
##ZVALUE=265
0.759959
0.827909
0.885725
0.852942
0.976920
0.804663
0.870824
0.887513
0.923872
1.028776
1.205802
1.250505
1.319647
1.432896
3.635883
18.569827
46.432614
115.930438
204.671621
379.416943
529.185534
667.938590
800.361633
823.660493
751.423836
641.559958
473.334789
338.746905
200.634003
130.403638
91.796517
81.039667
94.988942
121.033788
140.641928
157.849789
161.968470
155.510902
145.322680
122.072697
103.456974
78.540444
63.096881
47.562718
38.875937
32.674670
29.614568
27.489662
25.365949
23.595691
20.977855
19.707680
18.443465
16.664863
15.133619
14.120936
13.352633
12.098551
11.532903
10.751486
10.413527
9.338856
9.125471
8.428693
8.356571
7.825494
7.354617
7.803440
7.571578
7.611513
7.783771
7.852912
7.754564
7.530451
7.483959
7.388592
7.031560
7.008910
6.428957
6.474853
6.011724
5.896688
5.761981
5.582571
5.632639
5.467534
5.614758
5.683899
5.572438
5.357862
5.610585
5.754828
5.621910
5.460978
4.999638
5.567670
##ZVALUE=270
0.925660
0.766516
0.839829
0.736713
0.741482
0.837445
0.934601
0.912547
0.925660
1.009703
1.023412
1.073480
1.259446
1.102686
1.359582
1.463890
1.845956
7.846951
24.523735
79.418421
158.467889
272.353888
472.669601
634.332895
799.759030
861.122012
845.856667
767.832994
605.129004
461.938977
332.676768
190.977454
123.428702
85.241795
83.704591
101.627707
119.713545
141.621828
152.913928
159.000754
154.117942
137.488842
121.935606
95.805526
75.644851
53.500533
41.662455
32.097697
27.379990
23.151636
21.230578
19.230843
17.932653
16.212463
15.139580
14.351606
13.261437
11.971593
11.767745
10.808706
10.027885
9.424686
8.896589
8.080602
8.229613
8.221865
7.776618
7.538795
7.503629
7.538795
7.888675
7.659793
7.556677
7.256866
7.096529
6.898642
7.151961
6.520748
6.070733
6.344914
5.794764
5.647540
5.628467
5.383492
5.464554
5.299449
5.524755
5.247593
5.293489
5.322695
5.134940
5.362630
5.158782
4.809499
5.023479
5.051494
##ZVALUE=275
0.758767
0.757575
0.696778
0.741482
0.701547
0.797510
0.741482
0.842810
0.971556
0.847578
0.767708
0.858903
1.164675
0.970960
1.013875
1.194477
1.369715
1.340508
1.393557
3.362894
13.112426
39.512515
118.002892
220.418572
408.830643
560.752749
736.959577
848.426819
899.814963
864.780545
766.588449
579.435825
419.890881
239.793658
148.723722
80.899000
64.113736
70.039630
84.517598
103.939772
121.167898
135.030746
141.300559
136.694908
126.695633
102.788806
84.893703
62.074661
46.803951
31.742454
23.860931
18.153787
15.907884
13.261437
12.666583
11.205673
10.965466
10.458827
10.064840
9.636879
9.224415
8.796453
8.580685
8.193851
7.924438
7.803440
7.558465
7.326603
7.666945
7.210970
7.393956
7.429719
7.403493
7.215738
7.182956
6.996989
6.900430
6.515980
6.339550
5.860925
5.713701
5.610585
5.629659
5.283952
5.407929
5.127788
5.464554
5.495548
4.996657
4.974604
4.967451
4.827976
4.692674
4.730821
4.462600
4.704595
##ZVALUE=280
0.573993
0.458956
0.387430
0.671744
0.604987
0.529885
0.705719
0.705719
0.603795
0.559688
0.687838
0.591874
0.626445
0.698566
0.748634
0.693798
0.931621
1.028776
1.118779
0.954866
1.291633
1.478791
7.526875
27.460456
90.459585
167.738795
314.640999
464.837551
674.420595
804.886818
887.849927
906.580687
833.369493
650.153756
487.890840
284.754634
174.461603
82.283616
48.973560
39.293766
47.016740
65.946579
83.639622
103.966594
116.359591
123.645663
120.453835
107.751489
92.660785
71.759820
53.862929
35.552979
25.037527
15.702844
11.866689
9.013414
8.323789
7.864833
7.844567
7.651448
7.484555
7.409453
7.237792
7.001758
7.009506
7.214546
7.329583
6.991625
7.198453
7.196665
7.114410
7.070899
7.267594
6.945729
7.034540
6.647706
6.343722
6.114841
6.212592
5.602837
5.705953
5.658865
5.328655
5.390644
5.537868
4.983544
4.806519
4.782677
4.933476
4.792809
4.720688
4.796982
4.362464
4.315972
4.359484
4.355907
##ZVALUE=285
0.685453
0.691414
0.599623
0.534654
0.719428
0.580549
0.707507
0.822544
0.660419
0.515580
0.777841
0.748634
0.859499
0.853539
0.776649
0.878572
0.866652
1.027584
1.102686
1.138449
1.135468
1.244545
1.273751
1.612902
3.687739
12.677908
48.162937
102.277994
218.589902
352.880955
508.195758
718.834996
848.139524
926.989913
896.064639
751.990676
597.722530
378.051996
239.776969
114.664435
59.072971
27.600527
25.344491
37.954450
52.086711
74.977875
91.005564
107.116699
113.970637
113.644600
105.616450
88.846684
72.786808
50.526857
36.014915
21.979809
15.281439
9.897947
8.076429
7.240772
7.342696
7.223487
7.364750
6.853938
7.406473
6.995797
7.151961
7.538795
7.401705
7.337928
7.430911
7.557869
7.386804
7.302761
7.088780
7.050633
6.926656
6.633997
6.298423
6.151795
5.930662
5.727410
5.691648
5.826950
5.600452
5.576611
5.254745
5.405545
5.162954
5.010962
4.889965
4.845858
4.769564
4.676580
4.502535
4.791617
##ZVALUE=290
0.729561
0.713468
0.626445
0.667572
0.538826
0.643730
0.724792
0.646710
0.670552
0.617504
0.749826
0.950694
0.829697
0.859499
0.708699
0.686646
0.932813
0.924468
0.727773
0.908971
0.978708
0.879765
0.948906
1.022816
1.236796
1.288652
1.947880
5.119443
26.134849
62.581897
123.268962
266.226530
419.407487
651.921630
802.052021
929.400921
938.830972
838.121772
701.625943
485.875010
326.015949
166.167617
86.881518
32.871962
19.429922
23.184419
32.562613
48.977733
64.054728
86.064935
100.297928
110.244751
111.180544
102.448463
88.715553
69.158673
52.265525
34.602880
24.226904
15.076995
11.014938
8.398890
7.637739
7.621646
7.168651
7.269979
7.548928
7.536411
7.600784
7.907748
8.017421
8.089542
8.179545
7.850528
7.590652
7.292628
7.018447
7.089972
6.647706
6.617904
6.351471
6.213784
5.977750
5.846620
5.494952
5.746484
5.564690
5.451441
5.326867
5.055666
4.904866
4.921556
4.841685
4.589558
4.561543
4.747510
##ZVALUE=295
0.587702
0.581741
0.473857
0.596642
0.657439
0.446439
0.695586
0.745654
0.553727
0.637770
0.546575
0.632405
0.701547
0.746846
0.616908
0.776649
0.863671
0.799894
0.794530
0.678897
0.982881
0.959635
0.816584
0.926852
1.059771
1.034737
1.172423
1.193881
1.427531
2.349615
11.520982
36.070943
84.249973
206.455588
340.901017
559.504628
720.368028
890.449882
944.465995
902.567506
794.342756
588.610768
412.774682
220.771432
121.817589
45.861602
21.925569
14.994740
19.377470
30.849576
43.351650
62.816739
78.122616
96.093416
104.579926
105.867982
99.100471
84.092617
69.638491
49.887896
36.502481
23.129582
16.469955
10.999441
8.679628
7.604957
7.366538
7.555485
7.767677
7.901788
7.464886
7.839799
7.706881
7.682443
7.445812
7.173419
7.135868
7.085800
6.721616
6.482601
6.407499
6.173849
6.063581
5.971789
5.943775
5.683899
5.367994
5.416870
5.145669
5.093813
5.090833
4.838705
4.693866
4.831553
4.508495
4.602671
##ZVALUE=300
0.465512
0.608563
0.517964
0.555515
0.500679
0.574589
0.575781
0.562668
0.422597
0.525713
0.516772
0.604987
0.670552
0.626445
0.587702
0.730753
0.719428
0.672936
0.673532
0.796914
0.784993
0.868440
0.784993
0.814795
0.855923
0.892878
1.083612
1.046658
1.386404
1.039505
1.423955
1.440644
5.054474
17.540455
63.804984
129.294991
273.228884
428.549647
647.314787
795.129538
928.986669
949.191451
856.481791
721.315742
495.532751
333.299637
169.667006
92.099905
33.052564
15.100837
12.586713
17.249584
27.577877
38.536787
57.166815
71.784854
89.751482
98.638535
101.384521
96.987486
83.794594
70.573688
51.328540
37.779808
24.235845
16.754866
10.912418
8.603930
7.692575
7.279515
7.224679
7.129908
7.150769
7.205606
7.009506
6.727576
6.602407
6.734729
6.448627
6.111860
5.967617
6.196499
5.849600
5.606413
5.480647
5.390644
5.071759
5.164742
5.222559
5.057454
5.028844
4.678965
4.651546
4.315972
4.564524
4.389882
##ZVALUE=305
0.484586
0.506639
0.506639
0.506639
0.452995
0.574589
0.443459
0.443459
0.623465
0.566840
0.419617
0.567436
0.475645
0.473857
0.492930
0.600815
0.677705
0.687838
0.524521
0.603795
0.534654
0.563860
0.673532
0.690818
0.753999
0.674725
0.710487
0.844598
0.853539
1.010895
0.900626
1.092553
1.286864
1.327991
2.574921
9.422898
40.780902
91.203451
211.838484
339.715481
552.331805
717.466474
893.006921
952.556729
913.676023
798.271894
589.001775
427.483916
236.353874
128.990412
48.405528
21.117926
10.163784
11.068583
16.628504
24.051666
39.138794
51.792860
69.949627
81.775784
92.922449
95.641613
91.160536
81.265569
64.647794
51.229000
34.524798
23.897886
14.471412
10.511875
7.688999
6.921887
6.441474
6.376505
6.153584
6.066561
5.760789
5.691648
5.503893
5.592704
5.449653
5.400777
5.142689
5.168915
5.044937
5.229712
4.929900
4.991889
4.708767
4.642606
4.573464
4.268885
4.394650
4.240870
3.904700
4.055500
##ZVALUE=310
0.480413
0.552535
0.563860
0.373721
0.546575
0.525713
0.643730
0.648499
0.670552
0.533462
0.626445
0.645518
0.724792
0.595450
0.548959
0.517964
0.556707
0.706911
0.674725
0.726581
0.742674
0.708699
0.612736
0.639558
0.637770
0.713468
0.891685
0.775456
0.686646
0.828505
0.964999
0.874996
1.238585
1.094937
1.088977
1.428723
1.272559
4.954934
16.800761
59.148669
122.042894
263.137817
411.748886
636.184812
797.520876
942.196846
961.943865
871.929526
742.606521
520.159006
356.136560
182.407498
96.775889
34.238696
13.828874
8.529425
10.204911
14.848709
21.254420
33.557415
45.427680
63.495636
75.638890
85.623860
90.683699
87.047815
78.825951
62.631965
49.820542
33.758879
24.256706
15.024543
10.458827
7.429719
6.227493
5.517602
5.077720
5.229712
5.032420
4.767776
4.911423
4.769564
4.798770
4.633665
4.626513
4.746914
4.318953
4.618764
4.369617
4.420877
4.280806
4.324913
4.233718
4.141927
4.052520
3.847480
##ZVALUE=315
0.445843
0.416636
0.420809
0.340939
0.540614
0.458956
0.316501
0.437498
0.484586
0.550747
0.535846
0.339746
0.375509
0.480413
0.387430
0.600815
0.412464
0.473857
0.521541
0.514984
0.413656
0.463724
0.544786
0.395775
0.655651
0.597835
0.598431
0.671744
0.642538
0.640750
0.780821
0.686646
0.785589
0.802875
0.891685
1.153946
1.123548
1.030564
1.178980
2.235770
8.080602
35.186410
81.598759
194.296837
328.858495
560.763478
720.145702
892.706513
962.381959
934.265852
831.380486
624.243617
453.829765
249.545574
136.933923
50.090551
20.350814
8.420944
7.289648
9.203553
12.358427
20.294785
29.121637
42.989850
55.456758
71.792603
79.814792
84.120631
82.325935
72.558522
61.749816
45.775771
33.910871
20.597577
14.193654
8.540750
6.193519
5.114675
4.593730
4.512668
4.262924
4.145503
4.151464
4.159808
4.184842
3.971457
4.049540
4.062653
3.916621
4.151464
3.890991
3.967881
3.832579
3.844500
3.625751
3.604889
##ZVALUE=320
0.324845
0.340939
0.434518
0.357628
0.466704
0.441670
0.378489
0.276566
0.479817
0.357628
0.548959
0.359416
0.386834
0.421405
0.530481
0.532866
0.386834
0.521541
0.545979
0.292659
0.434518
0.497699
0.439882
0.557899
0.609756
0.521541
0.587702
0.512600
0.645518
0.650883
0.576973
0.565648
0.771880
0.624657
0.791550
0.854731
0.777841
0.960827
0.902414
1.259446
1.152754
1.403689
3.734827
18.594861
50.741434
141.891837
245.211720
429.953933
598.827600
811.674595
922.867656
963.964462
905.269980
728.029609
549.509525
319.175720
187.262893
79.056621
34.525990
10.743737
6.544590
6.458759
7.548928
11.142492
15.993714
26.371479
36.794543
51.716566
63.381791
74.987411
79.369545
77.568889
70.573688
56.476593
44.556856
29.773712
20.962954
12.551546
8.331537
5.619526
4.580617
3.830791
3.925562
3.901720
3.737807
3.600717
3.712773
3.631711
3.646612
3.478527
3.715754
3.538728
3.470778
3.525615
3.522635
3.412962
##ZVALUE=325
0.476837
0.413656
0.388622
0.279546
0.393987
0.406504
0.340939
0.547767
0.540614
0.461936
0.521541
0.573993
0.625849
0.382662
0.544786
0.549555
0.358820
0.567436
0.599623
0.581741
0.500679
0.625849
0.472665
0.484586
0.640750
0.586510
0.522733
0.572801
0.727773
0.495911
0.561476
0.711679
0.774860
0.774860
0.848770
0.788569
0.819564
0.746846
0.757575
0.945926
1.008511
1.191497
1.120567
1.347661
2.113581
11.859536
32.259822
94.357729
176.807642
347.381830
508.228540
729.978681
867.949724
960.361958
937.593579
785.789490
621.145964
396.498442
246.979594
110.763907
52.425861
15.094876
7.170439
5.432963
5.678535
7.384419
9.765625
16.121864
24.150610
37.177801
47.714710
60.747862
69.135427
74.556470
71.622729
63.239932
53.914785
39.697886
29.100776
17.951727
12.097955
7.235408
5.523562
4.411936
3.918409
3.700852
3.564954
3.422499
3.472567
3.565550
3.644824
3.388524
3.663898
3.502965
3.626943
3.616810
##ZVALUE=330
0.495911
0.399947
0.568628
0.604987
0.551939
0.495911
0.420809
0.450611
0.274777
0.471473
0.498891
0.416636
0.423789
0.387430
0.507832
0.471473
0.599623
0.633597
0.488758
0.432730
0.557899
0.585914
0.599623
0.571609
0.644922
0.392795
0.716448
0.695586
0.683665
0.583529
0.695586
0.756979
0.753999
0.746846
0.639558
0.664592
0.894666
0.809431
0.776649
0.849962
0.911951
0.764728
1.028776
0.911951
1.032948
1.284480
1.547933
3.702641
19.207597
51.341653
137.907863
240.733027
435.281992
599.140525
805.028677
915.418863
941.348672
869.174600
685.814023
521.110892
302.375555
177.242756
72.720647
30.985475
9.215474
5.757809
5.180836
5.296469
7.104874
9.627938
15.908480
22.486448
34.180880
44.384599
57.435632
64.882636
69.502592
67.574978
59.570670
51.035881
36.796927
27.772784
18.469691
12.928843
7.940531
5.664825
4.378557
3.965497
3.561974
3.562570
3.467798
3.555417
3.420711
3.451705
3.424883
3.439784
##ZVALUE=335
0.417829
0.370741
0.358820
0.362992
0.408888
0.422597
0.292659
0.388622
0.395775
0.445843
0.433922
0.340939
0.324845
0.407696
0.498891
0.401735
0.428557
0.650883
0.335574
0.452995
0.475645
0.354648
0.446439
0.386834
0.446439
0.531673
0.619888
0.627637
0.598431
0.542998
0.628829
0.613928
0.647902
0.498891
0.613928
0.644922
0.637770
0.609756
0.652671
0.813603
0.991821
0.742674
0.622869
0.770688
0.773668
0.935793
0.996590
1.049638
1.281500
1.805425
9.022951
27.957559
88.543892
171.797872
344.941616
503.012538
720.490813
857.457519
936.774015
909.797549
763.808489
605.618954
380.612612
236.353874
101.723671
46.246648
13.823509
6.511807
5.087852
5.029440
5.440712
6.482601
9.513497
13.475418
21.425486
29.624701
42.111874
51.526427
60.994625
64.229965
62.175989
56.980848
47.795773
38.810968
27.275681
19.796491
12.274981
8.620620
5.669594
4.387498
3.868937
3.535748
3.257990
3.233552
3.268719
3.430843
##ZVALUE=340
0.395775
0.336766
0.390410
0.338554
0.385642
0.433922
0.215769
0.381470
0.281930
0.435710
0.477433
0.451803
0.591874
0.508428
0.502467
0.387430
0.517964
0.383854
0.433922
0.295639
0.381470
0.399947
0.513792
0.420809
0.563860
0.515580
0.561476
0.431538
0.636578
0.528693
0.463724
0.551939
0.595450
0.543594
0.548959
0.712872
0.686646
0.645518
0.720620
0.805855
0.684857
0.591874
0.561476
0.730753
0.856519
0.747442
0.850558
1.056790
1.000762
1.185536
1.100898
1.351833
3.696680
20.383596
53.884983
145.654678
258.433819
450.606942
616.858602
811.012983
902.457833
912.491679
833.037496
649.578571
475.089550
261.342525
148.201585
58.803558
22.121668
7.001758
5.316734
4.935861
4.997849
5.165935
5.880594
8.823872
12.700558
20.279884
28.616786
40.423870
49.324632
57.449937
59.697628
59.049726
54.615736
45.601726
37.209988
26.506782
19.442439
12.397766
8.559823
5.478859
4.335642
3.616810
3.400445
3.116727
##ZVALUE=345
0.436902
0.426769
0.308752
0.396967
0.440478
0.358820
0.418425
0.236630
0.414848
0.417829
0.318885
0.412464
0.427961
0.493526
0.498891
0.333786
0.388622
0.354648
0.506639
0.457764
0.486970
0.422597
0.415444
0.402927
0.700951
0.475645
0.557899
0.578761
0.494719
0.491738
0.532866
0.569820
0.588894
0.509620
0.363588
0.402927
0.529885
0.570416
0.469685
0.552535
0.667572
0.612736
0.791550
0.669956
0.620484
0.679493
0.942945
0.862479
0.875592
0.841618
0.797510
0.894666
1.165867
1.196861
2.279878
8.492470
39.021969
85.826516
197.106600
319.802761
531.303883
691.152811
856.283903
911.363959
863.814950
747.874975
536.593795
367.640853
175.274611
86.102486
27.421713
10.928512
5.772710
5.220771
4.674792
4.513860
4.478693
5.187988
7.746816
11.356473
18.931627
25.589466
35.889745
43.272972
51.697493
55.216551
55.009723
52.175522
43.473840
36.530495
26.154518
19.414425
12.309551
8.383989
5.485415
4.560947
##ZVALUE=350
0.356436
0.402927
0.379682
0.441670
0.373721
0.401735
0.289679
0.474453
0.450611
0.459552
0.411868
0.418425
0.431538
0.608563
0.432730
0.472665
0.613928
0.461936
0.404716
0.531673
0.454783
0.518560
0.411868
0.589490
0.520945
0.478625
0.404716
0.400543
0.454783
0.569820
0.487566
0.541806
0.410676
0.455976
0.525713
0.567436
0.519753
0.444651
0.593662
0.636578
0.724792
0.655651
0.604987
0.609756
0.525713
0.714660
0.652671
0.648499
0.733733
0.769496
0.889897
0.863671
0.832677
1.010895
1.224875
1.184940
1.387596
4.268885
21.111965
52.810907
138.927698
244.893432
433.898568
594.827533
787.941813
879.767537
885.366797
801.302791
594.303608
416.632891
219.748616
121.935606
45.577884
17.122626
6.224513
4.968643
4.251599
4.239678
4.008412
4.126430
5.229712
7.009506
10.612607
15.164614
23.177862
30.129552
39.846897
45.775771
50.377846
51.125884
47.465563
42.282939
33.500791
26.131868
17.493963
12.873411
##ZVALUE=355
0.407696
0.439882
0.435710
0.320673
0.193715
0.503659
0.451803
0.265837
0.299811
0.458956
0.303984
0.574589
0.567436
0.445843
0.451803
0.475645
0.372529
0.397563
0.534654
0.387430
0.336766
0.470877
0.468493
0.553727
0.538826
0.533462
0.565648
0.425577
0.563860
0.604987
0.372529
0.570416
0.579953
0.482798
0.564456
0.491738
0.558496
0.546575
0.546575
0.625849
0.478625
0.756979
0.483990
0.658631
0.540614
0.529885
0.766516
0.719428
0.578761
0.823736
0.746846
0.708699
0.790954
0.639558
0.925660
0.907779
0.913739
1.151562
1.129508
2.536774
9.343624
40.074587
87.751746
198.616982
325.537920
532.505512
694.671869
849.883556
889.077783
817.636847
691.835880
483.067632
319.050550
146.237612
69.373846
20.184517
8.084774
4.787445
4.495978
4.086494
3.869534
3.833771
3.828406
4.752874
5.946755
9.205937
13.202429
20.126700
26.401877
34.488440
40.484667
45.133829
46.327710
44.073462
39.884448
32.325983
##ZVALUE=360
0.521541
0.369549
0.384450
0.392795
0.341535
0.258684
0.524521
0.441670
0.261664
0.384450
0.409484
0.449419
0.345707
0.453591
0.388622
0.459552
0.375509
0.355840
0.365973
0.458956
0.369549
0.473857
0.359416
0.552535
0.526905
0.392795
0.430942
0.495911
0.458956
0.593662
0.401735
0.617504
0.580549
0.609756
0.501871
0.561476
0.621676
0.435710
0.521541
0.367761
0.460744
0.476837
0.610948
0.713468
0.524521
0.783801
0.677705
0.584722
0.719428
0.699759
0.681877
0.648499
0.792742
0.593662
0.858903
1.000762
0.899434
0.978708
0.998974
1.025796
1.181960
1.682639
3.995895
19.313693
51.154494
139.250755
243.005753
425.617695
590.581894
779.178739
859.506726
855.692625
764.053464
560.743809
392.013788
201.544762
106.185675
37.997961
13.928413
5.071759
4.308820
3.958941
3.663898
3.655553
3.520846
3.610849
3.973842
5.257726
7.073879
10.797977
15.694499
23.005605
28.606653
36.439896
40.053725
42.216778
##ZVALUE=365
0.330806
0.403523
0.476837
0.506639
0.288486
0.481606
0.671744
0.246763
0.254512
0.383854
0.438690
0.507832
0.595450
0.422597
0.352859
0.465512
0.386834
0.410676
0.423789
0.427961
0.448823
0.545979
0.458956
0.504851
0.433922
0.396967
0.423789
0.408888
0.498891
0.590682
0.601411
0.328422
0.573993
0.663996
0.434518
0.611544
0.661612
0.647902
0.481606
0.479817
0.546575
0.560880
0.638962
0.588894
0.532866
0.657439
0.409484
0.623465
0.507832
0.587702
0.694990
0.694990
0.659823
0.664592
0.804663
0.743866
0.726581
0.802875
0.784993
0.920892
0.888705
1.145601
1.293421
1.436472
2.269745
10.422468
30.818582
89.802742
176.859498
349.595547
498.186946
686.038733
802.201629
853.905678
798.462033
627.796650
468.577743
273.531675
155.024529
57.505965
22.470951
6.264448
4.216433
4.052520
3.720522
3.579855
3.222823
3.313422
3.245473
3.450513
4.149675
6.279945
8.553863
13.318658
18.171668
24.792552
##ZVALUE=370
0.410676
0.436902
0.387430
0.308752
0.324845
0.456572
0.332594
0.349879
0.382662
0.542998
0.354648
0.356436
0.428557
0.352859
0.308752
0.518560
0.454783
0.466704
0.610948
0.508428
0.408888
0.266433
0.445843
0.514984
0.594854
0.561476
0.396967
0.495911
0.530481
0.427961
0.485778
0.382662
0.533462
0.353456
0.474453
0.422597
0.346899
0.559688
0.504851
0.641942
0.404716
0.630617
0.576973
0.373721
0.545979
0.508428
0.488758
0.562668
0.433922
0.627637
0.589490
0.522733
0.662804
0.739694
0.596642
0.569820
0.672936
0.744462
0.674725
0.710487
0.641942
0.886917
0.832677
1.048446
1.141429
1.179576
1.584888
5.246997
17.838478
63.987970
127.632618
264.032483
409.251451
620.948672
752.348900
839.602947
819.250941
693.475008
539.984703
324.325562
190.178752
76.488853
33.801794
10.616779
4.982948
3.645420
3.436804
3.296733
3.059506
3.072619
2.859831
2.742410
2.929568
3.805757
4.891753
7.803440
##ZVALUE=375
0.404716
0.342727
0.405908
0.400543
0.336766
0.395775
0.544786
0.413656
0.393987
0.524521
0.385642
0.410676
0.357628
0.358820
0.458956
0.346899
0.443459
0.521541
0.213981
0.306964
0.581741
0.369549
0.311732
0.348687
0.431538
0.494719
0.283718
0.453591
0.344515
0.502467
0.366569
0.453591
0.506639
0.468493
0.377893
0.599623
0.542998
0.481606
0.475645
0.495911
0.484586
0.492930
0.403523
0.600815
0.517964
0.524521
0.469685
0.505447
0.623465
0.531673
0.460744
0.460744
0.437498
0.486970
0.508428
0.733733
0.578761
0.501871
0.754595
0.575781
0.722408
0.642538
0.803471
0.759959
0.772476
0.833869
0.977516
1.163483
1.240969
2.632737
8.781552
36.397576
83.596706
201.293826
331.183672
532.914996
674.080849
803.825855
830.438733
744.930506
611.585975
400.092602
263.741612
135.120749
67.580938
20.301938
7.208586
3.557801
3.394485
3.145933
3.008842
2.684593
2.647638
2.569556
2.556443
2.701879
##ZVALUE=380
0.471473
0.415444
0.384450
0.347495
0.346899
0.399947
0.253916
0.327826
0.240803
0.183582
0.246763
0.399947
0.341535
0.357628
0.333786
0.397563
0.420809
0.361800
0.313520
0.411868
0.423789
0.354648
0.415444
0.486970
0.382662
0.360608
0.522733
0.324845
0.444651
0.470877
0.710487
0.477433
0.409484
0.552535
0.538826
0.477433
0.519753
0.464916
0.474453
0.676513
0.566840
0.389814
0.533462
0.392795
0.565648
0.654459
0.485778
0.550747
0.527501
0.397563
0.464916
0.432730
0.541806
0.550747
0.371933
0.548959
0.475645
0.632405
0.533462
0.681877
0.590682
0.643730
0.541806
0.632405
0.756979
0.728965
0.838637
1.020432
1.052618
1.143813
1.280904
1.604557
4.804730
24.360418
60.600638
155.309439
265.480876
446.586609
599.674582
762.651563
817.413926
771.170855
671.636462
498.901010
353.068709
183.930397
97.639561
33.437610
12.249947
4.210472
3.169775
2.833605
2.823472
2.721548
2.597570
2.454519
##ZVALUE=385
0.449419
0.294447
0.373721
0.328422
0.362992
0.336766
0.207424
0.383854
0.461936
0.274777
0.415444
0.358820
0.518560
0.390410
0.280738
0.210404
0.338554
0.344515
0.316501
0.402927
0.330806
0.442863
0.524521
0.361800
0.411868
0.291467
0.572801
0.414848
0.451803
0.548959
0.581741
0.606775
0.581741
0.531673
0.591874
0.678897
0.633597
0.433922
0.319481
0.472665
0.487566
0.566840
0.331998
0.626445
0.541806
0.561476
0.514984
0.596642
0.424981
0.436902
0.590682
0.490546
0.476837
0.509620
0.576973
0.596642
0.407696
0.555515
0.720620
0.723600
0.529885
0.565648
0.714660
0.634789
0.735521
0.867844
0.722408
0.897646
0.867844
1.049638
1.168847
1.110435
0.991821
1.236796
2.130866
12.582541
35.762787
100.864768
192.156434
367.212892
520.437956
701.016784
784.571767
805.147886
749.737024
596.584678
448.733568
263.730884
155.064464
64.283609
25.531650
6.029606
3.493428
2.835989
2.585649
2.579689
##ZVALUE=390
0.328422
0.409484
0.345707
0.597835
0.285506
0.352859
0.365973
0.432730
0.398755
0.336766
0.243783
0.353456
0.410676
0.273585
0.383854
0.277758
0.292659
0.396967
0.440478
0.373721
0.355840
0.375509
0.453591
0.464916
0.443459
0.482798
0.412464
0.421405
0.515580
0.657439
0.593662
0.595450
0.636578
0.763535
0.841618
0.781417
0.850558
0.756979
0.779629
0.623465
0.706911
0.564456
0.805855
0.758767
0.585914
0.671744
0.551939
0.663996
0.619888
0.517964
0.534654
0.693798
0.568628
0.554919
0.601411
0.497699
0.615716
0.638962
0.601411
0.474453
0.733733
0.621676
0.576973
0.552535
0.716448
0.655651
0.808835
0.828505
0.964999
1.111627
1.101494
1.086593
0.944734
1.035929
1.033545
1.081824
1.306534
5.046725
25.333762
63.377619
162.369609
272.319913
444.004536
585.250854
744.988918
807.572603
790.620446
704.087615
520.317554
371.356010
202.662945
106.544495
36.842823
13.224483
3.784895
2.876520
##ZVALUE=395
0.264645
0.270605
0.278950
0.328422
0.419617
0.470877
0.329614
0.318885
0.282526
0.292659
0.270605
0.233650
0.342727
0.399947
0.332594
0.291467
0.370741
0.459552
0.379682
0.436902
0.320673
0.536442
0.385642
0.461936
0.320673
0.446439
0.456572
0.550747
0.571609
0.694990
0.629425
0.820756
0.829697
0.833869
1.039505
0.930429
0.715852
0.826716
0.731945
0.806451
0.827909
0.749826
0.704527
0.744462
0.722408
0.622869
0.642538
0.563860
0.676513
0.634789
0.549555
0.732541
0.622869
0.645518
0.534654
0.514984
0.549555
0.618696
0.538826
0.670552
0.578761
0.554919
0.585914
0.599623
0.840425
0.667572
0.799894
0.892878
0.773668
0.905991
0.984669
0.836849
0.824928
0.774860
0.831485
0.826716
0.888705
1.120567
1.057982
3.418922
12.830496
50.950646
103.710890
213.844776
335.726738
530.703664
669.726729
794.350505
822.525620
754.129887
631.147027
426.665545
280.526876
131.501555
64.119697
20.116568
##ZVALUE=400
0.311732
0.227690
0.390410
0.202656
0.251532
0.306964
0.385642
0.365973
0.349879
0.380874
0.355840
0.270605
0.295639
0.386834
0.426769
0.431538
0.303984
0.467896
0.358820
0.358820
0.375509
0.249743
0.398755
0.397563
0.434518
0.375509
0.420809
0.618696
0.516772
0.535846
0.839829
0.793934
0.936985
0.956655
0.988841
0.873804
0.904799
0.865459
0.850558
0.724792
0.838637
0.831485
0.839829
0.677705
0.821948
0.774860
0.692606
0.705719
0.699759
0.550747
0.710487
0.545979
0.627637
0.548959
0.629425
0.520945
0.630617
0.690818
0.633597
0.611544
0.571609
0.629425
0.615716
0.686646
0.695586
0.682473
0.708699
0.841618
0.824928
0.943542
0.921488
0.811815
0.590682
0.804663
0.670552
0.774860
0.729561
0.741482
0.896454
0.868440
1.038909
1.785755
6.151795
27.943850
65.224767
157.063007
265.287757
442.560911
579.921007
726.294518
789.519548
763.919950
672.633648
502.902865
355.259776
192.293525
##END
