##TITLE=FAAI0502
##FORMAT=SPECTACLE-ASCII V-1.2
##DATA TYPE=ULTRAVIOLET SPECTRUM
##SECOND TYPE=ULTRAVIOLET SPECTRUM
##DATE=05/24/18
##TIME=16:23:35
##SPECTROMETER/DATA SYSTEM=SPECTACLE
##XUNITS=NM EM
##YUNITS=ENERGY
##YFACTOR=1
##FIRSTX=220
##LASTX=410
##NPOINTS=96
##3DDATA=Equidistant
##ZUNITS=NM EX
##FIRSTZ=210
##LASTZ=400
##ZPOINTS=39
##XYDATA=(Y..Y)
##ZVALUE=210
7.529855
8.057952
6.702542
6.802678
6.475449
7.060766
6.203651
5.513430
5.891919
4.764795
4.603863
4.220605
3.976822
4.067421
4.193783
4.669428
3.923774
4.103780
5.111694
4.706979
5.468726
5.794764
6.245971
6.877780
7.823706
10.779500
13.135672
17.605424
20.298958
24.234653
31.985641
32.809973
37.478805
38.710833
40.499568
41.583776
40.114522
40.533543
38.502812
39.031506
36.948919
35.832524
31.709671
31.427741
29.603839
27.611852
25.828481
24.942756
23.981929
20.435452
20.675659
19.214749
17.959476
17.266870
16.368628
15.470982
13.930798
15.405416
13.528466
12.765527
11.878610
12.582541
13.060570
12.959838
11.574626
12.563467
14.929771
16.946793
18.134713
20.041466
22.642612
24.143457
27.253628
26.102662
29.518604
29.425621
26.553869
24.991632
22.370815
21.478534
18.375516
15.881658
13.526678
11.447668
10.494590
9.884834
9.020567
8.705854
9.276867
10.434985
9.831786
11.021495
12.837648
14.277697
16.119480
17.221570
##ZVALUE=215
27.093887
29.323697
19.314885
17.064810
13.880730
12.868643
14.388561
13.976693
12.988448
11.691451
9.812713
9.454489
7.411838
6.161928
4.246831
4.242659
4.515648
4.492998
4.857779
4.981756
4.921556
4.977584
6.495714
6.692410
8.993745
14.188886
18.235445
23.879409
31.676888
38.483739
44.711828
50.570965
56.458712
61.017871
64.051747
65.973997
67.210793
67.074895
67.026615
59.092641
55.913925
56.895614
50.157905
46.846867
42.979717
42.214990
37.769675
35.431981
33.067465
30.715466
29.472709
26.649833
24.705529
23.751855
22.903681
21.735430
20.314455
18.659830
17.983913
17.050505
16.317964
15.975833
15.662909
13.829470
15.818477
14.686584
15.570521
17.020702
18.723607
18.232465
19.901991
23.248792
24.658442
26.219487
27.071834
25.484562
24.515986
24.510622
23.341775
19.621849
17.316937
14.971495
13.829470
11.192560
12.344718
11.102557
10.176897
9.511709
8.394718
8.891821
8.842945
8.611679
9.604692
10.025501
11.205673
11.951923
##ZVALUE=220
87.229609
85.233450
76.766610
64.842701
54.805875
41.626692
32.626987
26.968718
26.218891
25.296807
25.469661
24.431944
20.768642
18.925667
14.205575
12.388825
8.814931
6.339550
5.186796
5.094409
4.716516
4.691482
4.894733
6.253719
9.607673
16.092658
22.029877
30.599833
38.423538
46.734810
59.280992
67.455769
79.231858
83.776712
92.328787
91.051459
94.177723
89.771748
88.377595
85.483789
82.316995
74.484944
72.440505
66.307783
62.847733
57.132840
54.045916
48.376918
47.257543
41.614771
38.456917
35.372972
31.487942
32.503605
27.549863
26.181936
24.209619
24.030805
21.313429
19.720793
19.192696
17.596483
16.792417
16.784668
15.938878
16.218424
16.775727
17.049909
16.824603
17.584562
19.125938
20.258427
21.842718
22.264719
21.357536
20.835996
21.952987
20.015836
18.675923
16.517639
14.983416
14.805794
11.833906
12.632608
10.967851
10.784864
9.086728
9.747744
9.551644
9.730458
9.543896
9.591579
8.963943
8.583665
9.496808
8.771420
##ZVALUE=225
139.428973
148.471594
169.253945
179.560781
169.540644
146.771669
121.187568
87.176561
66.384673
52.149892
43.382645
42.553544
44.737458
44.662952
41.636825
37.630796
28.408766
22.619963
16.602874
10.387897
7.851720
5.429983
5.438924
6.628633
8.103848
13.923645
18.846989
28.806925
37.716627
48.736930
57.653785
68.374872
73.536634
81.537962
88.541508
86.650848
93.273520
88.121891
87.873936
84.846616
81.682801
73.751807
72.739720
63.715577
61.574578
57.664514
53.783655
50.411820
45.811534
42.864680
39.370656
36.856532
33.782721
31.938553
27.395487
27.567744
24.511814
23.660660
20.818710
21.567941
20.419955
18.195510
18.456578
16.984940
16.683936
15.574694
16.105771
16.685724
16.969442
18.313527
19.406676
18.984675
20.424724
20.717978
20.208955
20.369887
18.910766
17.030835
16.546845
14.763474
14.110804
12.670755
12.982488
11.648536
11.808872
11.195540
10.701418
9.989738
11.649728
10.776520
10.173917
10.385513
9.816885
10.291934
9.003878
9.576678
##ZVALUE=230
107.586980
118.657947
173.712969
244.262815
285.974741
315.766931
308.792591
272.131562
232.484937
182.178617
117.622614
87.017417
66.114664
63.085556
69.302917
71.966648
69.133639
62.924623
55.118799
42.059422
31.655431
18.653870
13.083816
8.594990
7.884502
9.891987
12.270808
18.274784
23.583770
30.690432
34.939647
42.169690
47.366619
51.304698
53.316951
55.449605
55.428743
54.903626
55.870414
53.612590
51.716566
48.730969
47.094822
44.122934
41.680932
37.925839
36.477447
33.520460
31.055808
30.961633
28.255582
26.577711
26.187897
23.359656
23.008585
19.940734
20.739436
19.361973
19.308925
17.659664
16.710758
16.568899
16.398430
16.404986
15.066862
16.196966
15.861988
16.533732
17.252564
17.771721
18.227696
18.420815
18.679500
19.189715
20.250678
19.096732
18.651485
17.956495
16.488433
16.378760
15.485883
14.408827
14.384985
13.188720
12.187958
12.261868
12.513995
12.680888
13.023615
11.568666
11.649728
11.848807
11.430979
11.838675
12.467504
11.509657
##ZVALUE=235
28.965473
34.970641
71.296692
155.336857
234.700441
332.417488
406.884551
461.833477
467.420816
435.037017
358.858705
276.334882
180.220604
130.195618
94.986558
84.023476
85.184574
88.184476
93.649626
90.187788
79.340935
64.628720
48.773885
32.118559
23.142695
14.444590
11.438727
10.971427
11.914968
13.982654
15.580654
18.678904
20.832419
20.881891
23.603439
23.446679
24.140477
24.585724
24.597645
25.988817
23.384690
23.307800
23.833513
22.421479
21.310449
20.547509
19.295812
19.189715
17.892718
18.103719
16.999841
16.960502
16.387701
15.488863
15.245676
15.407801
14.469624
14.282465
14.755726
14.146566
14.135838
13.454556
13.672709
13.157725
12.996793
13.123751
14.170408
14.189482
15.321970
15.640855
17.230511
16.830564
18.930435
18.922687
18.818974
18.285513
17.894506
17.140508
16.428828
16.342998
15.702844
15.379786
14.978647
14.434457
14.188886
13.660789
14.356971
13.800859
13.938546
13.822913
12.608767
14.038682
13.329983
13.689995
13.481975
13.627410
##ZVALUE=240
2.202988
2.264977
9.960532
28.916597
66.696405
149.638653
246.887803
384.329557
478.082895
569.228530
591.833591
552.448630
477.250814
358.938575
268.507004
169.467926
122.638941
91.719627
88.513494
97.438693
102.710724
106.837749
101.482868
88.424683
68.334937
53.275824
36.560893
25.731921
17.004609
13.025999
11.218786
12.044907
12.051463
12.829900
12.923479
14.548898
14.501810
15.476942
15.005469
14.923811
14.709830
15.276670
14.968514
14.632940
14.052987
14.528632
13.627410
13.933778
13.468862
12.997985
13.239980
12.446642
11.988878
11.849999
11.497736
12.099743
11.506677
11.530519
11.433959
11.148453
11.498928
11.643767
11.928678
11.985898
12.440681
12.030602
13.405681
14.534593
14.227629
15.776753
17.229915
16.782880
18.142462
19.751787
18.999577
19.415617
17.971992
16.575456
17.274618
16.599894
15.814900
15.859604
15.547872
14.627576
14.719963
15.247464
14.321804
14.026761
15.322566
13.886690
14.650822
14.123917
14.351606
13.568997
13.454556
14.445782
##ZVALUE=245
1.185536
1.370907
1.371503
1.600981
5.085468
16.865730
57.538748
114.120841
241.449475
355.085731
509.672761
600.561500
653.242469
658.300519
595.892668
474.882722
368.920565
239.517689
165.589452
105.579495
86.634755
87.084770
101.871490
111.788511
111.037493
108.151436
92.996955
80.636740
59.319735
45.069456
34.837723
23.560524
19.455552
16.597509
16.008615
15.545487
17.032623
15.975833
17.031431
17.055869
16.843677
16.683936
16.977787
16.266704
15.258789
15.590787
14.732480
14.378428
13.041496
13.386607
13.363957
12.715459
12.143850
11.845827
11.823773
11.216998
10.972619
10.933876
10.900497
10.357499
10.525584
10.220408
10.179877
10.530949
10.151863
10.558963
10.850430
11.384487
12.451410
12.224913
13.023615
13.725758
14.121532
14.803410
14.166832
14.501810
13.784766
13.485551
14.409423
13.088584
13.443828
13.734698
13.437867
13.443828
12.695789
12.747645
12.970567
12.807846
12.814999
13.247728
12.780428
13.402700
12.907982
12.356639
12.991428
13.100505
##ZVALUE=250
1.259446
1.179576
1.186728
1.315475
1.284480
1.607537
2.326965
8.424520
38.709641
85.537434
198.290944
311.496854
438.554883
590.116978
679.046512
722.581744
694.494843
589.499474
479.258895
317.461491
214.688778
137.419701
86.157918
79.995990
89.982748
102.517605
116.428733
119.570494
115.400553
106.313825
94.294548
72.623491
57.431459
42.180419
34.222603
27.722716
25.354624
24.458766
23.779869
23.765564
23.432970
22.103786
21.814704
21.548867
20.048618
20.053983
19.055605
18.353462
17.820597
16.198754
16.319752
15.058517
14.672875
13.813972
13.556480
12.314916
12.104511
11.946559
10.982752
10.838509
10.398626
10.386705
9.992719
10.213852
10.033846
10.148883
10.437965
10.523796
11.162758
11.754632
11.875629
12.143850
12.766719
12.818575
12.859702
13.020635
12.734532
12.150407
12.114644
11.959672
11.938810
11.319518
11.402965
11.848807
11.401772
11.590719
11.685491
11.291504
11.412501
11.558533
11.453629
11.977553
11.460781
11.917949
11.514425
11.166930
##ZVALUE=255
1.016855
1.100898
1.099706
1.272559
1.201630
1.149774
1.277924
1.282692
1.639724
4.429817
24.532676
60.700774
122.211576
252.777934
383.597612
563.191772
675.925016
766.187906
780.357718
703.456998
593.205690
456.782579
279.935598
176.894665
97.413659
75.305700
76.805949
89.765787
113.577843
126.980543
134.826899
133.616924
126.306415
107.335448
91.203451
71.216822
57.788491
45.965910
39.716959
35.690665
33.063889
32.473803
30.863881
30.757785
28.752685
25.935769
25.373697
23.650527
22.814870
21.696687
20.866990
18.926859
17.912984
16.390681
16.000867
14.981627
14.648438
13.454556
12.808442
11.975765
11.632442
11.456609
10.707974
11.105537
10.527968
9.747744
10.669827
10.682940
11.153817
11.117458
11.032820
10.996461
11.571646
11.791587
12.164712
11.989474
11.684895
11.566877
10.919571
10.706782
10.367632
10.473728
10.545850
10.721684
10.768771
9.965897
10.433793
10.768771
10.322928
10.844469
10.774732
10.560751
10.562539
10.592937
10.799766
10.678768
##ZVALUE=260
0.943542
1.103878
1.190901
0.897646
1.108646
1.211762
1.241565
1.057982
1.280904
1.428723
1.504421
2.327561
8.058548
37.364960
84.686875
198.116899
318.105817
502.213836
644.232035
799.075961
852.606893
831.259489
707.376003
572.112799
370.655656
252.877474
145.775676
100.743771
78.076720
84.929466
105.266571
132.885575
150.076747
160.824656
161.853433
146.444440
131.735802
106.949806
90.400577
71.786642
60.597658
50.877929
46.698451
41.658878
39.448738
36.625862
34.527779
31.824708
30.277967
28.218627
26.463866
24.407506
22.923946
21.492839
20.062923
18.796921
17.740726
15.884638
15.492439
14.502406
13.717413
13.180971
12.269616
12.054443
11.772513
11.637807
10.815859
10.846853
11.056662
11.045933
10.853410
11.830926
11.778474
11.704564
11.096597
10.710955
10.510683
10.310411
10.586977
10.180473
10.072589
9.616613
10.060668
9.607673
9.825826
9.466410
9.696484
9.541512
9.669662
9.857416
9.557605
10.191798
10.193586
9.712577
10.028481
9.764433
##ZVALUE=265
0.963807
0.816584
0.909567
0.894666
1.050830
0.984669
1.001954
1.205802
1.079440
1.206994
1.304746
1.334548
1.518726
1.739860
4.719496
25.177002
63.059926
154.558420
262.797475
463.833809
630.188584
771.958828
897.647738
908.662677
808.339715
686.113834
504.096746
363.602638
212.484002
140.859485
103.051662
92.359781
105.326772
134.378672
153.674483
173.009634
179.010630
172.979832
161.943436
138.332844
117.757916
93.773603
78.745484
62.211752
53.401589
45.863986
41.467547
38.972497
36.454797
33.427477
31.520724
28.411746
26.837587
24.544597
22.537708
20.993948
19.614697
17.764568
17.001629
16.067624
15.246868
14.046431
13.265610
12.550950
12.183785
11.827946
11.413693
11.439919
11.156797
11.309981
11.102557
11.351705
11.230707
11.054873
10.716915
10.832548
10.273457
9.993911
10.078549
9.639859
9.760857
9.840727
9.447932
9.102821
9.189844
9.188652
9.099841
9.425879
9.195805
9.127855
8.945465
9.430647
9.151697
9.169579
9.438992
9.607673
##ZVALUE=270
1.153946
1.071692
1.168847
1.121759
1.193881
1.154542
1.265407
1.103878
0.964999
1.305938
1.322627
1.267791
1.466870
1.430511
1.487732
1.802444
2.219677
12.105703
35.389662
110.893846
209.693909
350.627899
579.099655
750.613809
914.739966
966.184735
926.264524
839.160681
652.989745
500.648618
353.759527
208.369493
139.687657
98.475814
99.236965
119.486451
137.784481
159.183741
171.370506
177.833438
172.861814
156.204700
138.309002
111.435652
91.607571
69.144964
57.471991
46.013594
39.789677
35.267472
32.254457
29.289722
27.599931
25.551915
23.535490
22.024512
20.471811
18.559694
17.984509
16.847849
15.649796
14.579892
14.014840
13.103485
12.651682
11.804700
11.461973
11.552572
11.500716
11.421442
10.861754
11.370778
10.724664
10.906458
10.955930
10.867715
10.178685
10.100603
9.652972
9.354949
9.243488
9.658933
9.026527
9.210706
9.109974
9.238720
9.067655
9.121895
8.891821
8.943677
8.757710
8.951426
9.032488
9.153485
8.798838
9.036660
##ZVALUE=275
0.828505
0.821948
0.955462
0.901818
0.852942
0.917912
0.936985
0.826716
0.894666
0.937581
1.050830
1.148582
1.132488
1.152754
1.183748
1.399517
1.212955
1.284480
1.775622
4.755855
20.678639
59.588552
161.521435
292.949677
514.434576
678.753853
862.124562
970.531702
1002.418995
945.371985
838.643909
626.570582
456.896424
260.245800
165.737867
97.503662
79.680681
85.066557
99.040866
119.848847
135.014653
150.586963
156.452656
152.657628
139.863491
116.483569
96.849799
74.305534
58.638453
42.206645
34.166574
27.653575
23.781657
21.567941
20.306706
18.674731
17.403960
15.996695
15.308857
14.462471
13.557673
12.884736
12.452602
11.733770
11.430979
10.811687
10.629892
10.576844
10.602474
10.610819
10.407567
10.302663
10.460615
10.254979
10.239482
9.983778
9.740591
9.288788
9.427667
9.008646
9.043813
8.869767
8.834600
8.569956
8.870959
8.496642
8.620620
8.516908
8.566976
8.493662
8.451939
8.203983
8.330941
8.696914
8.790493
8.307695
##ZVALUE=280
0.746846
0.644922
0.889897
0.792742
0.900626
0.647902
0.882745
0.748634
0.758767
0.918508
1.030564
0.928640
0.988841
1.067519
1.014471
1.183748
0.999570
1.367927
1.381636
1.383424
1.576543
2.032518
12.274981
42.547584
127.837658
229.438543
411.533713
583.048463
808.033943
936.817527
1015.794873
1007.496715
914.785862
704.974532
523.614883
308.674574
190.699697
95.159411
58.799982
49.229860
56.795478
76.151490
93.868971
115.156770
126.916766
132.434964
129.555464
116.792917
101.280808
78.373551
61.709881
41.868687
31.495690
21.863580
17.518997
14.566779
12.972951
12.766719
11.850595
11.361837
11.197925
10.478497
10.576844
10.189414
9.978414
9.817481
9.475946
9.272695
9.606481
9.728670
9.976625
9.803772
9.699464
10.006428
9.655952
9.281635
9.442568
8.696914
9.184480
8.649826
8.751750
8.515716
8.779764
8.712411
8.407831
8.495450
8.519888
8.691549
8.194447
8.228421
8.053780
8.326769
8.568764
8.059740
8.559823
8.021593
##ZVALUE=285
0.538826
0.641942
0.750422
0.805855
0.789762
0.741482
0.656843
0.681877
0.902414
0.790954
0.645518
0.796914
0.921488
0.901818
0.917912
0.922680
0.881553
0.980496
1.004934
1.104474
1.287460
1.254678
1.567602
1.726747
5.842447
21.353960
71.716905
149.061680
308.086872
461.179614
683.026910
846.154690
1001.761556
1015.794873
972.923636
842.996836
611.555576
427.237749
230.486989
134.256482
58.456659
33.833981
31.408668
40.241480
59.620738
76.738000
97.064972
110.000968
118.613839
118.011832
107.876658
93.447566
73.400736
56.299567
37.618876
26.635528
16.226768
12.783408
10.560751
9.510517
8.847713
8.876920
8.975863
8.880496
8.638501
8.874536
9.029508
8.729696
8.720756
9.380579
9.415746
9.347796
9.453893
9.218454
9.421706
9.165406
8.972883
8.797646
8.760691
8.406639
8.839965
8.655787
8.932948
8.703470
8.594990
9.013414
8.366704
8.386970
8.413792
8.302927
8.221865
8.580685
8.342862
8.235574
8.295774
7.932782
##ZVALUE=290
0.692606
0.709891
0.663996
0.582933
0.647902
0.635982
0.561476
0.695586
0.738502
0.843406
0.724792
0.853539
0.770688
0.693798
0.802875
0.804663
0.720620
0.945926
0.925660
1.038909
0.993609
1.056790
1.141429
1.240969
1.475811
1.477599
2.224445
7.788539
38.912892
92.169642
177.519917
356.466770
532.296896
779.635906
931.247473
1015.791893
1015.791893
918.142796
757.980943
517.835617
346.534848
174.075961
91.276765
35.530925
21.217465
25.298595
34.907460
51.764846
66.825747
88.069439
102.050900
112.280846
112.905502
103.151798
90.497732
68.838000
52.662492
34.913421
24.323463
15.352964
11.572838
8.683801
8.405447
7.972717
7.689595
7.741451
8.062720
8.158684
8.515716
8.731484
9.163618
8.948445
9.384751
9.365678
8.935928
8.934736
9.012818
8.775592
8.805990
8.876920
8.551478
8.609891
8.494854
8.706450
8.280873
8.142591
8.300543
8.679628
8.578897
8.320808
8.411407
8.146763
8.237958
8.000731
7.712841
8.222461
##ZVALUE=295
0.664592
0.622869
0.511408
0.665784
0.502467
0.589490
0.655651
0.578761
0.625849
0.826716
0.637770
0.696778
0.638962
0.656843
0.758767
0.822544
0.879765
0.920892
0.881553
0.854731
0.966787
1.001954
1.195669
1.123548
1.320839
1.155734
1.335740
1.554489
1.670718
3.059506
19.523501
53.763986
146.686435
263.458490
475.206971
654.081702
876.197815
999.119878
1015.794873
1002.675891
835.016966
661.671758
417.464972
263.414979
119.427443
57.491660
21.428466
15.733838
21.290779
30.216575
47.064424
61.671734
81.557631
94.210505
105.198622
105.151534
97.432733
85.857511
66.843629
52.100420
34.453869
24.145842
15.201569
10.855794
8.536577
7.521510
7.189512
7.175803
7.628798
7.730722
8.203983
8.209944
8.458495
8.493662
8.582473
8.390546
8.368492
8.520484
8.421540
8.347631
8.474588
8.421540
8.364916
8.450747
8.497834
8.443594
8.445978
8.304715
8.520484
8.242726
8.325577
8.437634
8.116961
8.247495
8.055568
8.030534
##ZVALUE=300
0.586510
0.515580
0.637770
0.553727
0.708699
0.663996
0.743866
0.839829
0.591874
0.594854
0.703931
0.612736
0.584722
0.571609
0.824928
0.720620
0.735521
0.642538
0.833869
0.858903
0.809431
0.802875
0.762939
0.710487
0.912547
1.031756
1.084805
1.288652
1.366735
1.213551
1.657605
1.838803
7.668734
29.744506
96.028447
182.460546
360.098481
534.233451
771.920681
921.783447
1015.794873
1015.794873
933.465958
781.314969
529.912710
351.849794
178.304911
94.389915
34.822822
15.606880
13.174415
17.315745
27.908683
38.774610
57.255626
72.377920
89.625716
97.930431
100.531578
95.678568
82.465410
69.150925
49.998760
37.080646
23.305416
16.244650
10.458827
8.271933
7.373691
7.242560
7.529855
7.527471
7.539988
7.585883
7.923841
7.850528
7.822514
7.886887
8.041859
8.197427
8.127689
8.378625
8.283854
8.284450
8.340478
8.309484
8.214712
8.312464
8.454919
8.347631
7.999539
8.155704
8.210540
7.932782
7.900000
8.021593
##ZVALUE=305
0.607967
0.557899
0.610948
0.514984
0.497699
0.650883
0.598431
0.615716
0.524521
0.592470
0.611544
0.718832
0.512600
0.684857
0.784993
0.656843
0.656843
0.579953
0.751615
0.753999
0.739694
0.796914
0.824928
0.782609
0.946522
0.934601
0.914931
0.943542
0.989437
1.133680
1.323819
1.292825
1.325607
1.557469
3.575683
15.215874
61.243773
130.871534
281.915665
435.607433
670.408010
840.270519
1005.861759
1015.794873
1000.187993
868.206024
638.207793
458.537936
250.025988
136.296749
50.297976
21.667480
9.952784
11.094809
16.874671
24.269819
39.403439
51.906705
69.952607
82.033873
93.050003
94.951987
89.637637
81.122518
63.607693
49.597621
33.859611
23.806691
14.381409
10.684729
8.527637
7.537603
7.494688
7.452965
7.471442
7.472634
7.522702
7.761717
7.526875
7.823706
8.007884
7.999539
8.381605
8.348823
8.402467
8.495450
8.376837
8.316636
8.281469
8.131862
8.316636
8.311868
8.125901
8.031726
8.191466
8.128881
##ZVALUE=310
0.466704
0.470877
0.553727
0.704527
0.495911
0.476837
0.704527
0.645518
0.667572
0.695586
0.389814
0.495911
0.643730
0.756979
0.448823
0.559688
0.619888
0.625849
0.738502
0.490546
0.689626
0.790954
0.618696
0.757575
0.632405
0.699759
0.834465
0.932813
0.790954
0.877976
1.038909
1.074672
1.113415
1.310706
1.421571
1.523495
1.750588
7.489920
26.326776
85.199475
165.659785
337.692499
507.492423
752.326846
922.414660
1015.794873
1015.794873
962.503552
808.460712
559.095740
378.615856
192.794800
101.193786
35.056472
13.945699
8.247495
9.680986
14.510751
21.019578
33.400655
45.413971
62.927604
75.425506
86.522698
89.096427
86.343884
77.884793
63.627958
50.088763
33.908486
24.122596
16.197562
11.816621
8.724928
7.778406
7.324815
7.644892
7.310510
7.538795
7.723570
7.602572
8.035898
8.096695
8.260608
8.157492
8.223653
8.512735
8.290410
8.091927
8.229613
8.278489
8.413792
8.175969
8.171797
8.066893
8.123517
##ZVALUE=315
0.539422
0.586510
0.510812
0.588894
0.538826
0.591874
0.654459
0.561476
0.493526
0.549555
0.516772
0.448823
0.555515
0.545979
0.660419
0.623465
0.641942
0.662804
0.531673
0.500679
0.664592
0.646710
0.603795
0.682473
0.654459
0.650883
0.760555
0.584722
0.812411
0.820756
0.982881
0.859499
0.973940
1.045465
1.098514
1.196861
1.209974
1.382828
1.501441
3.303885
12.900829
52.967668
117.026567
264.290571
418.569446
667.765737
839.489698
1008.581519
1015.794873
1015.794873
910.180807
676.983595
487.222672
266.260505
144.909620
51.595569
20.325780
7.930994
7.534623
9.344816
12.837648
20.819902
28.971434
43.091774
56.210756
71.844459
80.281496
85.026622
83.115697
73.021650
61.717629
45.898557
34.345984
22.061467
16.070604
11.190772
9.306669
8.226633
7.734895
7.615685
7.715821
7.853508
7.807612
8.178949
8.134842
8.141994
8.205771
8.322597
8.474588
8.035898
8.158684
8.323789
8.216500
8.111000
7.746816
7.981658
##ZVALUE=320
0.435710
0.361800
0.487566
0.520945
0.446439
0.442863
0.514984
0.605583
0.551939
0.516772
0.467896
0.571609
0.515580
0.498891
0.489950
0.522733
0.476837
0.655651
0.667572
0.622869
0.675917
0.571609
0.666976
0.596642
0.648499
0.864863
0.734925
0.789762
0.961423
0.891685
0.794530
0.875592
0.695586
0.816584
0.898838
1.046658
0.896454
1.098514
1.216531
1.199841
1.370907
1.794696
5.665421
30.809641
74.826479
188.114643
314.247608
529.600978
714.485645
939.687490
1015.794873
1015.794873
995.844603
791.792870
597.633719
344.112515
200.044513
83.662868
35.859942
10.902882
7.196665
7.039905
8.102655
11.928678
17.073750
27.943850
38.339496
53.085685
65.248609
76.888800
81.359744
79.047680
72.032809
58.725476
47.149658
32.760501
23.677945
15.615821
11.614561
9.215474
8.052588
8.001924
7.917881
7.924438
8.117557
7.917881
8.167624
8.042455
8.177757
8.012652
8.275509
8.168817
8.094907
8.017421
7.999539
8.160472
##ZVALUE=325
0.488758
0.284910
0.431538
0.534654
0.467896
0.464916
0.490546
0.529885
0.405908
0.507832
0.465512
0.599623
0.466704
0.584722
0.636578
0.438690
0.582933
0.597835
0.625849
0.538826
0.593662
0.547767
0.759959
0.636578
0.651479
0.776649
0.693798
0.760555
0.695586
0.832677
0.799894
0.775456
0.687838
0.812411
0.754595
0.929832
0.991821
0.892878
1.046658
1.042485
1.085997
1.261830
1.342893
1.559854
2.841949
18.586516
48.358440
128.468871
231.061578
437.600017
617.656708
856.176615
995.573997
1015.794873
1015.794873
853.629708
667.085648
422.534943
259.556770
115.451813
53.860545
15.762448
7.757545
6.428957
6.540418
8.041859
11.215806
17.830729
25.512576
38.639903
50.112605
63.795447
71.725845
76.735616
74.721575
66.015720
56.042671
42.759776
32.233000
21.682978
15.798807
11.185408
9.486675
8.356571
8.296967
8.101463
7.877946
7.948875
7.981658
7.885695
7.578731
8.045435
7.927418
7.871985
8.127689
8.023977
##ZVALUE=330
0.352859
0.447631
0.322461
0.427961
0.524521
0.475645
0.634789
0.434518
0.420809
0.449419
0.554919
0.425577
0.533462
0.439882
0.526905
0.491738
0.601411
0.735521
0.563860
0.547767
0.600815
0.471473
0.553727
0.619888
0.598431
0.650883
0.524521
0.528693
0.553727
0.542998
0.830889
0.738502
0.750422
0.775456
0.655651
0.798702
0.727773
0.770688
0.865459
0.830889
0.915527
0.947714
1.071692
1.105666
1.194477
1.426935
1.650453
7.204413
23.926497
81.228614
161.290765
329.430699
497.076511
744.387507
916.845798
1015.794873
1015.794873
925.428867
764.690638
519.742966
345.388651
164.081454
82.135797
27.522445
10.992885
6.350875
6.077886
6.679893
7.802844
11.668801
15.959740
25.114417
34.882426
48.649907
58.532953
68.253875
71.573853
69.610476
63.695908
51.714778
41.991472
29.633641
22.321939
16.014576
12.568831
9.754896
8.694530
7.862449
7.831454
7.593632
7.630587
8.015633
7.845759
7.493496
7.830858
8.035898
##ZVALUE=335
0.492930
0.466704
0.402927
0.468493
0.509620
0.462532
0.416636
0.548959
0.511408
0.577569
0.535846
0.503659
0.552535
0.503659
0.506639
0.419617
0.560880
0.567436
0.535846
0.596642
0.576973
0.480413
0.473857
0.454783
0.440478
0.478625
0.504851
0.493526
0.604987
0.563860
0.672936
0.763535
0.603795
0.711679
0.676513
0.748634
0.810623
0.725985
0.706911
0.928640
0.909567
0.766516
0.949502
1.036525
1.043677
1.043677
1.216531
1.184940
1.319647
3.037453
11.678934
49.325824
107.069612
245.649815
401.574969
655.099750
835.191607
1005.032659
1015.794873
990.779996
859.493017
614.616871
429.649949
229.929686
120.794773
40.564537
15.734434
7.204413
6.238818
6.245971
6.618500
7.989407
10.571480
16.301870
22.777915
34.614801
44.185519
56.005716
62.489510
67.328811
66.126585
59.060454
51.235557
39.668679
31.198859
22.258759
16.646981
11.980534
9.870529
8.528829
7.794499
7.573962
7.602572
7.468462
7.448792
7.385612
##ZVALUE=340
0.353456
0.381470
0.600815
0.282526
0.455976
0.486970
0.442863
0.406504
0.462532
0.596642
0.438690
0.559688
0.418425
0.394583
0.455976
0.515580
0.466704
0.510812
0.604987
0.495911
0.478625
0.728965
0.573993
0.528693
0.656843
0.564456
0.434518
0.595450
0.642538
0.548959
0.645518
0.699759
0.689626
0.543594
0.607967
0.588894
0.521541
0.779629
0.671744
0.610948
0.694990
0.837445
0.984669
0.782609
0.905991
0.817776
0.975728
0.984669
1.168847
1.227856
1.281500
1.903772
5.384684
29.249787
74.525476
192.377567
330.690742
555.183887
740.932822
946.304798
1015.794873
1012.042761
919.245481
709.355474
512.592793
280.361772
157.023668
61.779618
23.662448
7.949471
6.527901
6.197691
6.369948
6.432533
7.649660
10.786653
14.749765
22.943616
31.045675
43.170452
52.220821
60.165524
63.067675
61.954856
57.667494
47.842860
40.336847
29.477477
22.691488
16.009808
12.047887
9.253621
8.202791
7.428527
7.040501
7.193685
##ZVALUE=345
0.445843
0.379682
0.440478
0.400543
0.447631
0.442863
0.360608
0.441670
0.298619
0.438690
0.448823
0.489950
0.527501
0.516772
0.426769
0.405908
0.558496
0.608563
0.580549
0.391603
0.500679
0.520945
0.363588
0.516772
0.510812
0.502467
0.472665
0.485778
0.491738
0.498891
0.701547
0.764728
0.657439
0.589490
0.670552
0.639558
0.485778
0.574589
0.617504
0.623465
0.653863
0.851750
0.797510
0.804663
0.686646
0.801682
0.764728
0.928640
0.863671
0.986457
1.035929
1.174808
1.156926
1.513958
2.601743
15.863776
46.246648
128.683448
237.914920
440.014601
620.612502
855.831504
981.492996
1015.794873
980.366468
787.020922
604.937673
368.756652
213.586688
84.924698
36.930442
11.606812
6.906986
6.265640
6.122589
6.104708
5.984902
7.401705
9.220839
14.565587
20.338893
30.470490
37.904978
47.435760
53.522587
58.182478
58.027506
53.688884
47.784448
38.467646
30.860901
21.205544
16.095638
11.309981
9.226799
7.729530
##ZVALUE=350
0.340939
0.377893
0.436902
0.481606
0.416636
0.443459
0.447631
0.390410
0.447631
0.475645
0.414848
0.381470
0.442863
0.426769
0.484586
0.537634
0.598431
0.395775
0.524521
0.546575
0.511408
0.571609
0.526905
0.474453
0.465512
0.645518
0.449419
0.635982
0.586510
0.604987
0.623465
0.440478
0.600815
0.584722
0.652671
0.694990
0.584722
0.572801
0.744462
0.767708
0.724792
0.655651
0.604987
0.751615
0.625849
0.510812
0.771880
0.830889
0.802875
0.858903
0.803471
0.918508
1.032948
1.190901
1.174808
1.258850
1.735687
7.441640
25.489926
86.164474
168.664455
348.628759
517.337918
748.150945
903.223753
1014.456749
1005.622745
861.918926
684.098005
436.421633
270.968676
123.604536
55.601001
15.176535
7.467866
6.101727
5.833507
5.485415
5.542636
6.097555
6.629825
9.176731
12.576580
18.808842
24.778843
34.050941
41.466951
49.271584
52.626729
53.191781
50.670505
43.390989
36.823750
28.243661
22.530556
15.705824
##ZVALUE=355
0.389814
0.411868
0.428557
0.455976
0.445843
0.297427
0.521541
0.384450
0.458956
0.498891
0.448823
0.493526
0.502467
0.468493
0.367761
0.438690
0.457764
0.472665
0.490546
0.437498
0.484586
0.596642
0.638962
0.607967
0.499487
0.597835
0.615716
0.529885
0.513792
0.518560
0.482798
0.701547
0.506639
0.736713
0.660419
0.551939
0.654459
0.566840
0.547767
0.544786
0.704527
0.705719
0.699759
0.695586
0.783801
0.681877
0.811815
0.746846
0.747442
0.842810
0.942945
0.970960
0.946522
0.881553
1.057982
1.210570
1.235604
1.142621
1.293421
3.572702
13.076663
55.201650
117.615461
256.688595
414.337516
661.352873
829.843879
977.260470
1011.225581
906.626582
758.957863
525.789857
342.989564
156.280994
74.342489
22.024512
8.857846
5.721450
5.444884
5.242825
5.304813
5.485415
5.495548
6.381869
7.925630
11.081696
14.922619
22.389889
28.404593
36.588907
42.825937
47.714710
48.766732
46.407580
42.422414
35.197735
##ZVALUE=360
0.437498
0.569820
0.413656
0.472665
0.422597
0.259876
0.411868
0.534654
0.390410
0.433922
0.345707
0.226498
0.395775
0.523925
0.438690
0.485778
0.381470
0.529885
0.466704
0.360608
0.370741
0.444651
0.498891
0.646710
0.445843
0.488758
0.566840
0.479817
0.612736
0.527501
0.620484
0.565648
0.538826
0.468493
0.524521
0.623465
0.453591
0.455976
0.628829
0.511408
0.450611
0.728965
0.647902
0.624657
0.680685
0.637770
0.790954
0.727773
0.889897
0.523925
0.736713
0.744462
0.818968
0.899434
0.891685
0.863671
0.856519
1.100898
1.125932
1.232624
1.530647
2.112985
5.499721
27.349591
70.232749
183.637738
312.643051
528.044701
715.106726
917.942524
988.850594
960.914493
845.887661
609.059930
422.335863
215.482712
112.810731
40.071607
14.715791
5.825758
5.315542
5.023479
5.099773
4.967451
5.012751
5.086660
5.460978
6.772876
8.624792
12.617707
17.253757
24.673939
30.921698
37.993789
41.681528
44.439435
##ZVALUE=365
0.341535
0.377893
0.392795
0.262856
0.364780
0.295639
0.366569
0.342727
0.324845
0.407696
0.553727
0.268817
0.401735
0.442863
0.415444
0.445843
0.533462
0.413656
0.395775
0.553727
0.645518
0.381470
0.619888
0.698566
0.456572
0.377893
0.492930
0.446439
0.400543
0.495911
0.475645
0.582933
0.518560
0.488758
0.557899
0.517964
0.625849
0.569820
0.571609
0.623465
0.621676
0.609756
0.597835
0.585914
0.745654
0.631809
0.701547
0.671744
0.715852
0.675917
0.628829
0.601411
0.951886
0.704527
0.808835
0.892878
0.916719
0.832677
0.902414
1.091957
1.172423
1.245737
1.356602
1.446605
2.416968
13.769865
42.077899
123.939514
231.795907
431.547761
609.190464
822.658539
937.253833
967.943668
888.754725
685.494542
503.499508
289.243460
161.957741
60.227513
23.511648
7.084608
5.136728
4.493594
4.764795
4.562736
4.511476
4.323721
4.312992
4.688501
5.545616
7.658601
10.267496
15.015602
19.576550
26.758909
##ZVALUE=370
0.497699
0.406504
0.415444
0.393987
0.472665
0.375509
0.428557
0.475645
0.427961
0.435710
0.444651
0.304580
0.408888
0.509620
0.478625
0.455976
0.541806
0.326633
0.359416
0.544786
0.380874
0.353456
0.428557
0.569820
0.369549
0.515580
0.517964
0.475645
0.484586
0.484586
0.394583
0.590682
0.448823
0.449419
0.375509
0.519753
0.637770
0.429749
0.462532
0.498891
0.517964
0.492930
0.709891
0.555515
0.538826
0.664592
0.661612
0.603795
0.737906
0.611544
0.586510
0.640750
0.616908
0.756979
0.572801
0.781417
0.722408
0.820756
0.708699
0.929832
0.846982
0.756979
0.969768
1.039505
1.147985
1.353621
1.867414
5.653501
31.647682
80.377460
199.118853
326.993465
542.681813
718.090534
900.340676
962.050557
918.994546
791.386962
557.480454
378.414989
184.382796
95.832944
34.260750
13.213754
5.146861
4.366636
4.260540
4.031658
3.923774
3.719926
3.793836
3.934503
4.372597
4.881620
6.452799
8.837581
##ZVALUE=375
0.405908
0.457764
0.308752
0.247955
0.316501
0.507832
0.331998
0.420809
0.518560
0.541806
0.424981
0.316501
0.388622
0.431538
0.346899
0.417829
0.415444
0.409484
0.583529
0.434518
0.368953
0.337958
0.452995
0.358820
0.447631
0.433922
0.550747
0.541806
0.532866
0.463724
0.484586
0.452995
0.516772
0.600815
0.459552
0.444651
0.524521
0.438690
0.518560
0.519753
0.675917
0.486970
0.627637
0.525713
0.602603
0.584722
0.587702
0.500679
0.520945
0.382662
0.591874
0.516772
0.609756
0.546575
0.673532
0.671744
0.693798
0.758767
0.564456
0.618696
0.780821
0.753999
0.818968
0.876784
0.908971
0.980496
1.116991
1.421571
1.587868
3.009439
16.987920
46.050549
127.169490
234.854817
437.141657
607.275963
815.715790
925.627947
942.336917
854.169726
646.326542
473.252535
275.926590
158.543587
61.726570
25.098920
7.064939
4.155636
3.925562
3.801584
3.690720
3.770590
3.505945
3.630519
3.587604
3.526807
##ZVALUE=380
0.368953
0.357628
0.293851
0.353456
0.280738
0.357628
0.335574
0.373721
0.331998
0.302792
0.300407
0.395775
0.467896
0.288486
0.382662
0.275970
0.437498
0.397563
0.326633
0.340939
0.499487
0.518560
0.507832
0.435710
0.432730
0.216961
0.344515
0.382662
0.465512
0.471473
0.565648
0.489950
0.468493
0.451803
0.586510
0.654459
0.448823
0.535846
0.497699
0.610948
0.506639
0.513792
0.483990
0.550747
0.428557
0.506639
0.483990
0.544786
0.541806
0.734925
0.510812
0.601411
0.552535
0.541806
0.466704
0.575781
0.664592
0.831485
0.646710
0.639558
0.691414
0.797510
0.815988
0.780821
0.730753
0.886917
1.041889
0.953674
1.128912
1.218915
1.497865
1.888871
8.153915
27.282834
89.985728
175.112486
349.655747
527.898669
755.079985
883.215666
941.924453
892.596841
736.258626
574.557781
352.891684
215.905905
91.934800
41.766763
10.941625
4.903674
3.913641
3.715754
3.491640
3.299713
3.430843
3.234744
##ZVALUE=385
0.206828
0.299811
0.188947
0.208616
0.242591
0.274777
0.347495
0.192523
0.361800
0.252724
0.255704
0.318885
0.474453
0.312924
0.314713
0.525713
0.323653
0.171661
0.158548
0.320673
0.318885
0.368953
0.178814
0.359416
0.087619
0.227690
0.322461
0.454783
0.474453
0.472665
0.604987
0.483990
0.540614
0.516772
0.527501
0.547767
0.650883
0.653863
0.619888
0.588894
0.451803
0.574589
0.509620
0.569820
0.487566
0.450611
0.399947
0.534654
0.538826
0.480413
0.500679
0.555515
0.416636
0.445843
0.429749
0.447631
0.427961
0.515580
0.544786
0.546575
0.502467
0.649691
0.646710
0.693798
0.662804
0.712872
0.891685
1.008511
0.837445
0.986457
1.161695
1.076460
1.213551
1.413822
2.947450
17.336607
48.439503
133.075714
245.839953
455.269814
630.713701
830.380917
911.078453
917.709470
843.756795
658.932924
488.723516
283.727646
165.600777
68.249702
26.715994
6.633997
3.877878
3.369451
3.168583
3.233552
##ZVALUE=390
0.262856
0.309944
0.464916
0.299811
0.335574
0.416636
0.410676
0.236630
0.364780
0.324845
0.346899
0.410676
0.202656
0.401735
0.366569
0.462532
0.398755
0.360608
0.304580
0.397563
0.434518
0.459552
0.400543
0.443459
0.434518
0.354648
0.341535
0.476837
0.662804
0.587702
0.590682
0.612736
0.653863
0.817776
0.673532
0.779629
0.769496
0.718832
0.789762
0.610948
0.797510
0.672936
0.750422
0.684857
0.684857
0.729561
0.660419
0.603795
0.435710
0.559688
0.672936
0.604987
0.625849
0.616908
0.520945
0.752807
0.655651
0.547767
0.642538
0.651479
0.499487
0.701547
0.761747
0.729561
0.647902
1.001954
0.883937
0.857711
1.041889
1.055598
1.049638
1.219511
1.118779
1.080632
1.061559
1.157522
1.660585
8.599758
29.553771
98.627806
194.963813
383.167863
539.366603
736.115575
863.943696
942.168832
911.597013
765.568018
610.389709
391.528010
237.203836
99.529624
44.550896
11.471510
4.784465
3.235936
##ZVALUE=395
0.321865
0.276566
0.245571
0.363588
0.393987
0.387430
0.404716
0.480413
0.411868
0.276566
0.393987
0.190735
0.449419
0.512600
0.269413
0.452995
0.295639
0.298619
0.218749
0.249743
0.319481
0.480413
0.497699
0.228882
0.529885
0.393987
0.490546
0.515580
0.755787
0.734925
0.672936
0.729561
0.788569
0.771880
1.001954
0.966787
0.909567
0.737906
0.889897
0.881553
0.816584
0.895858
0.701547
0.936985
0.749826
0.727773
0.690818
0.711679
0.562668
0.601411
0.469685
0.586510
0.523925
0.621676
0.556707
0.644922
0.603795
0.669956
0.728965
0.498891
0.700951
0.636578
0.663996
0.667572
0.670552
0.750422
0.755787
0.950694
1.077652
0.952482
0.930429
1.056790
1.078844
0.839829
0.973940
1.077652
1.097918
1.119971
1.294613
4.332662
17.947555
69.233775
137.809515
278.123617
426.002741
654.076934
807.492733
935.342908
950.616598
855.490565
706.184506
470.854640
307.220817
141.514540
69.157481
21.867752
##ZVALUE=400
0.417829
0.395775
0.375509
0.358820
0.335574
0.454783
0.378489
0.300407
0.349879
0.295639
0.382662
0.279546
0.365973
0.302792
0.323653
0.502467
0.275970
0.397563
0.308752
0.475645
0.389814
0.507832
0.362992
0.345707
0.325441
0.521541
0.532866
0.524521
0.696778
0.795722
0.828505
0.996590
1.059771
1.019835
1.091957
0.994802
1.044869
0.987649
1.006722
1.081824
0.893474
0.828505
0.860691
0.832677
0.934601
0.758767
0.719428
0.585914
0.659823
0.677705
0.674725
0.652671
0.634789
0.607967
0.620484
0.671744
0.549555
0.706911
0.640750
0.591874
0.542998
0.548959
0.709891
0.796914
0.771880
0.772476
0.828505
0.936985
0.897646
0.871420
0.873804
0.891685
0.892878
0.885725
0.825524
0.921488
0.975728
0.954866
1.065731
1.167655
1.158714
2.464652
8.600950
38.392544
88.207722
207.584500
334.551930
530.069470
695.286989
871.858001
928.322673
875.412822
765.504837
565.153956
395.231843
212.579966
##END
