##TITLE=FAAI0852
##FORMAT=SPECTACLE-ASCII V-1.2
##DATA TYPE=ULTRAVIOLET SPECTRUM
##SECOND TYPE=ULTRAVIOLET SPECTRUM
##DATE=05/24/18
##TIME=16:38:55
##SPECTROMETER/DATA SYSTEM=SPECTACLE
##XUNITS=NM EM
##YUNITS=ENERGY
##YFACTOR=1
##FIRSTX=220
##LASTX=410
##NPOINTS=96
##3DDATA=Equidistant
##ZUNITS=NM EX
##FIRSTZ=210
##LASTZ=400
##ZPOINTS=39
##XYDATA=(Y..Y)
##ZVALUE=210
7.634759
7.034540
7.786751
7.955432
6.582737
6.578565
7.187724
5.386472
5.958676
5.059838
4.395843
4.410744
4.050732
3.593564
3.545880
4.090667
4.403591
3.872514
4.337430
5.103946
4.658699
4.471540
5.820990
6.202459
8.519888
13.411641
17.331839
23.427606
33.939481
39.518476
47.370791
55.947900
61.092973
64.261556
67.548752
68.531632
68.288445
63.200593
65.738559
60.240626
56.917667
55.523515
50.795674
47.904849
42.937994
42.285919
36.884546
34.854412
31.327605
31.747818
24.774671
25.201440
23.190975
22.511482
19.403696
20.531416
17.946959
16.969442
15.526414
15.686750
14.692545
12.762547
11.415482
14.369488
12.969971
13.896823
14.620423
15.504956
16.886592
17.994642
19.534826
23.622513
22.886992
26.165843
25.429726
25.155544
22.914410
22.452474
20.797849
19.533634
16.495585
13.546944
11.675954
11.003613
9.053946
9.030700
7.647872
8.375645
8.604527
9.195805
9.862781
10.617971
11.267662
14.568567
16.482472
17.415881
##ZVALUE=215
29.673576
28.014779
23.195744
17.286539
15.796423
16.073585
14.374852
15.627742
14.510751
12.151599
11.183619
9.864569
6.611943
5.797744
5.221963
4.831553
4.213452
4.502535
4.075766
5.199909
5.196929
4.956722
6.447434
7.620454
11.136532
16.836524
24.222732
36.772490
46.681762
56.684613
71.610808
83.454847
89.226961
97.952485
104.453564
107.389688
108.474493
104.150772
101.997852
95.839500
90.848804
87.139606
81.832409
74.603558
69.311857
61.929822
60.407519
51.793456
47.637820
47.033429
40.598512
37.930608
34.842491
33.693910
28.549433
27.774572
23.698807
23.662448
21.387935
19.898415
19.807816
17.585754
15.362501
17.155409
16.353726
16.448498
15.253425
18.087626
16.403794
17.234683
18.928647
19.499660
23.304820
21.697879
22.064447
23.264885
21.051764
20.155907
17.371774
16.845465
13.498664
13.947487
11.287928
11.639595
9.618998
8.609891
8.577704
7.901788
7.603765
7.441640
7.979870
7.369518
7.316470
8.820891
8.409619
11.013746
##ZVALUE=220
92.407465
89.730620
82.041621
68.663955
55.281520
43.388605
34.224987
27.753711
26.229620
26.336908
27.511716
26.156902
21.406412
19.852519
15.377998
11.248589
7.595420
6.299615
5.104542
4.843473
4.392862
5.066991
5.292892
7.791519
12.593865
20.111799
30.073524
46.170950
62.937737
83.355904
98.046660
116.011500
128.681660
142.096877
144.631863
148.629546
152.369738
143.086910
143.628716
136.425495
129.276514
118.054748
113.225579
103.411674
96.839666
87.763667
78.101754
73.367953
64.327717
61.770678
56.324601
48.316717
46.307445
40.490627
39.734840
34.408569
30.638576
28.801560
26.985407
24.219751
22.127628
21.681786
19.897819
18.404722
17.071962
17.291903
17.698407
16.538501
17.508864
19.156933
18.108487
20.526648
19.970536
21.164417
20.361543
18.992424
19.269586
16.559958
15.972853
14.825463
14.298558
12.443662
11.266470
10.213852
9.783506
7.956624
8.772612
8.169413
8.286834
8.775592
7.498860
7.155538
7.184744
7.340908
7.127523
7.445812
##ZVALUE=225
141.977668
147.858858
162.904859
178.440809
172.359943
146.801472
121.957660
91.297626
68.622828
53.659678
46.897531
45.404434
45.403838
45.707822
42.068958
38.859844
27.825832
24.360418
15.447736
10.881424
7.761717
5.570650
5.341768
7.341504
12.299418
17.871857
30.642748
42.688847
62.614679
75.678825
89.752674
111.294985
122.118592
134.587884
140.450001
144.302845
145.936608
142.928958
136.491656
131.695867
121.689439
117.370486
111.068487
98.979473
93.704462
84.882975
76.017976
74.257851
65.886974
59.201717
54.675937
50.222874
44.805408
41.261911
39.199591
33.571720
32.908916
28.751493
26.786923
25.345683
22.474527
23.530722
19.874573
18.420815
17.478466
17.153621
17.436743
18.333793
16.823411
19.193888
18.656850
18.626451
20.111799
20.147562
19.409657
19.376874
17.404556
15.177727
14.948845
13.186932
12.143850
12.078881
10.581613
10.980964
9.762645
9.348989
9.377599
9.039640
7.753968
8.367896
8.238554
7.684827
7.920861
8.077621
8.166432
7.142425
##ZVALUE=230
99.247694
107.973814
159.411430
230.910778
275.901556
306.884646
305.487514
270.949006
226.582885
180.442929
116.197467
85.488558
67.954659
66.747665
65.629482
73.329806
69.605708
63.096881
52.962899
42.110682
30.758977
18.261671
12.622476
9.320974
9.449720
12.968779
18.136501
26.267767
35.319924
45.730472
56.414604
65.986514
73.255897
78.241825
83.788633
86.009502
89.156628
84.111691
83.606839
78.700781
77.750683
71.471930
69.739819
62.117577
61.673522
54.010749
49.155951
47.154427
43.958426
39.695501
38.016438
34.056902
30.943751
29.136539
27.214885
25.616884
24.364591
21.909475
20.561814
20.154715
19.191504
18.335581
17.012954
16.035438
15.478730
16.523600
15.653968
16.552806
16.280413
16.481876
17.238855
17.962456
17.632842
19.254684
16.762614
17.425418
17.164946
14.117956
13.930798
13.062954
12.710690
11.536479
11.457801
11.205673
10.724664
9.722710
9.639859
10.179877
9.502769
9.517670
8.510947
9.362698
8.785725
8.193851
8.534789
8.954406
##ZVALUE=235
23.796558
29.270649
58.535933
132.939816
207.145810
302.086473
372.614861
438.538790
445.884466
405.089855
349.652767
251.165628
183.248520
118.922591
95.542669
83.219409
84.347725
89.982748
94.863772
89.994669
79.673529
64.813495
46.582818
33.745766
20.307899
15.702844
13.464689
13.024807
15.543699
20.007491
21.442771
26.715994
27.739406
33.452511
33.038855
35.301447
35.675764
36.148429
34.703612
34.358501
33.861995
31.963587
32.043457
31.713843
29.526949
26.086569
26.041865
25.217533
24.212599
22.936463
20.946860
19.856691
19.489527
18.736720
17.539859
17.515421
16.185641
14.964938
14.516711
14.842749
13.924837
14.317632
13.478994
13.402700
13.888478
13.310909
13.270974
13.339520
13.853908
14.344454
14.428496
15.257597
16.561747
16.178489
16.063452
14.953613
15.502572
14.753938
13.375878
12.980700
12.573600
11.302829
10.946989
10.756850
10.514855
10.915995
10.219812
10.274649
10.084510
9.554625
9.123683
9.453893
9.365678
9.710789
9.236932
8.888841
##ZVALUE=240
1.956820
1.889467
7.220507
22.810698
67.983866
124.147534
207.427740
342.598557
440.195799
527.946949
557.048917
523.668528
460.841656
348.173976
261.700749
165.133476
120.092630
92.460513
87.336898
94.650984
104.229450
108.013749
102.921724
87.545514
70.782900
52.574873
38.779974
25.268793
18.416643
14.924407
13.680458
15.167594
15.381575
17.333627
19.226670
19.177794
20.459890
21.984577
21.138787
21.550655
21.538734
22.226572
21.640658
21.232963
21.618605
20.472407
20.562410
19.322634
18.507838
18.652678
17.300844
16.224980
15.651584
15.686750
14.651418
14.171600
13.435483
13.539791
12.994409
12.050867
11.615753
12.196898
11.369586
10.905862
11.261702
12.294650
11.480451
11.700988
12.670755
13.141632
14.235973
14.739633
14.146566
13.845563
14.626980
13.749599
13.635755
13.107657
13.095737
12.298822
10.556579
10.794997
10.506511
10.381937
10.761619
10.249615
9.619594
9.942651
9.576678
9.378791
9.531975
9.245872
9.032488
8.759499
9.478927
9.462833
##ZVALUE=245
1.235604
1.242757
1.313686
1.546741
3.131628
17.854571
43.890476
114.020705
193.585753
325.153470
438.917875
562.356710
615.404844
613.637567
562.712550
452.354550
353.702903
231.032968
161.169767
101.080537
85.620880
86.711645
100.038648
109.307766
114.848614
107.722878
93.776584
80.118775
59.386492
48.111677
35.796762
28.462410
23.863912
23.084879
21.573901
24.156570
24.584532
24.841428
24.571419
26.019812
25.333762
25.069714
24.566650
25.132895
23.739934
22.597909
22.529960
21.216869
20.731688
19.525886
18.935800
17.772913
17.170906
16.222000
14.810562
14.172792
13.378859
12.693405
12.581944
11.507869
11.638999
11.172891
10.644794
10.625720
10.994673
10.510683
10.624528
10.180473
10.856986
11.185408
11.583567
12.325644
12.406707
12.576580
12.624860
11.833906
12.106895
11.911988
10.675788
10.568500
10.090470
9.848475
9.239912
9.230971
9.731650
8.753538
9.413958
8.687973
8.968711
8.614659
8.350611
8.622408
9.121895
8.743405
8.265972
8.062720
##ZVALUE=250
1.259446
1.122952
1.193881
1.382828
1.262426
1.328588
2.515912
9.062886
38.573742
78.958869
179.462433
281.624794
397.202969
547.749996
633.930564
678.787827
654.130578
560.755730
461.999774
310.149789
206.862688
136.767626
87.440610
78.637004
88.742971
102.164745
117.337704
122.819543
119.083524
109.238625
98.987818
80.884695
66.260695
52.083731
44.725537
38.918853
36.318898
36.310554
35.488605
35.026670
34.777522
33.333898
33.126473
30.848980
29.811859
29.254556
27.293563
25.787950
24.718642
23.106933
22.131801
20.778775
18.506646
17.773509
17.199516
15.873909
14.904737
13.909936
12.900829
11.911988
11.394620
11.105537
10.726452
10.496974
10.540485
9.522438
9.408593
9.666681
10.200739
10.414720
10.258555
10.637641
10.909438
10.599494
10.968447
10.280609
9.911656
9.705424
8.966923
8.829832
9.053946
8.310676
8.571744
8.416772
7.955432
7.703900
7.425547
7.832646
7.474422
7.824898
8.512735
7.663965
7.798672
7.685423
7.599592
7.553697
##ZVALUE=255
1.091957
1.061559
1.173615
1.201630
1.100898
1.260638
1.323819
1.231432
1.914501
4.713535
24.724603
58.670640
115.736723
237.528682
353.406668
520.946980
628.244877
718.313456
731.247663
668.180585
565.176606
442.116857
269.654989
172.116756
96.189976
76.415539
78.382492
93.697906
117.988586
135.264993
141.706467
145.212412
138.467550
122.803450
107.366443
87.777972
74.845552
61.976910
55.302978
50.923824
48.922896
45.879483
44.861436
42.327642
40.253997
37.118793
35.922527
33.844709
31.933784
29.094815
26.116967
24.907589
23.548603
21.615624
19.927621
18.053651
16.892552
16.306639
14.640689
13.144612
13.007522
11.893511
11.479855
10.417700
10.459423
10.101795
9.650588
9.732842
9.565949
9.954572
9.812713
9.867549
9.791851
9.712577
10.025501
8.976460
8.422732
8.950830
8.098483
8.336902
7.717609
7.670522
7.143617
7.142425
7.234812
7.354617
6.781816
6.991625
7.281899
6.874800
6.769896
6.702542
6.805658
6.720424
6.840825
6.547570
##ZVALUE=260
1.021624
0.981688
1.161695
1.140833
1.036525
1.125932
0.971556
1.188517
1.395941
1.501441
1.449585
2.391934
9.296536
38.125515
84.838867
191.181898
299.545527
469.287634
601.072907
737.865567
799.298882
780.888796
677.936673
543.133616
359.737873
247.784853
146.931410
102.568865
85.822940
96.943974
118.553638
148.698688
169.036984
181.253552
181.174874
168.121457
154.864788
128.760934
113.594532
93.304515
79.192519
68.691969
62.689781
56.623816
53.590536
48.305988
46.788454
42.748451
40.013790
36.869645
33.382773
30.253530
28.048754
25.649667
23.946762
21.534562
20.342469
18.482804
16.995668
15.975833
14.412999
13.856888
13.127923
12.155771
11.035800
10.777712
10.880828
10.315776
9.665489
9.728670
9.851456
9.686947
9.524822
8.964539
9.179711
8.812547
8.594990
8.394718
7.974505
7.674694
7.359982
7.120967
7.188916
7.034540
6.793737
6.797910
6.678700
6.819963
6.467700
6.757975
6.682873
6.368756
6.254911
6.545782
6.388426
6.434917
##ZVALUE=265
1.008511
0.755787
0.844598
0.871420
0.904799
0.950694
0.934601
1.189709
1.204610
1.064539
1.378655
1.293421
1.423955
1.615882
5.386472
29.358864
68.431497
156.239867
258.281827
441.734791
592.272878
722.993016
839.709640
851.992965
764.972568
654.457808
484.372973
351.997614
218.994617
152.736902
118.216872
112.449527
127.995610
159.561634
180.228949
200.508833
204.347968
199.786425
186.675787
159.335732
140.920877
113.381743
96.173882
78.596473
68.179965
57.927966
54.212809
49.283504
46.387911
41.859746
38.586855
34.849644
31.896830
28.909445
26.201606
23.966432
22.368431
19.925833
18.794537
16.643405
15.712976
14.553666
13.575554
13.051629
12.377501
11.150837
10.446906
10.817647
10.505915
9.904504
9.883642
10.350943
9.426475
9.483695
8.852482
9.076595
8.584857
7.941723
7.715821
7.739663
7.407665
6.958842
6.800890
6.976724
6.674528
6.787777
6.412864
6.534457
6.218553
5.661845
6.279945
6.240606
6.145835
5.951524
6.222725
5.790591
##ZVALUE=270
0.830889
0.982881
0.961423
0.995994
0.852942
0.890493
0.938773
1.144409
0.969768
1.045465
1.060963
1.099706
1.156926
1.396537
1.416802
1.670718
2.117753
14.185905
41.712523
117.992759
214.161873
343.843699
551.743507
703.347921
856.078863
907.496810
882.645845
797.261596
629.531741
488.950610
363.953710
223.499537
160.278678
125.452876
125.521421
146.995783
162.563920
184.627771
194.571614
199.245811
193.480849
175.196528
154.131651
126.266479
104.280710
79.709888
66.495538
54.022670
47.632456
41.604638
38.177967
34.361482
31.470656
29.142499
26.906729
23.618937
22.152662
19.675493
18.578768
17.753839
16.764998
14.983416
14.017820
13.000965
12.219548
11.698604
10.986924
11.166930
10.561943
10.270476
10.169744
10.231733
10.078549
9.665489
9.135604
8.870959
8.368492
8.088946
7.827878
7.354617
6.770492
6.772876
6.673932
6.687641
6.641746
6.586909
6.305575
6.513000
6.177425
6.287694
5.916953
5.784631
5.944967
5.889535
5.923510
5.535483
##ZVALUE=275
0.785589
0.785589
0.831485
0.789762
0.833869
0.744462
0.815988
0.905991
0.937581
0.972748
1.118779
0.943542
0.912547
0.980496
1.052618
1.148582
1.317859
1.426935
1.654625
5.954504
25.094748
66.851974
172.901750
295.801759
496.316552
642.893910
810.856819
907.137990
950.351954
900.403857
802.618861
613.051653
452.472568
268.362761
179.479718
114.388466
96.574426
101.871490
114.575624
134.496689
150.191784
163.238645
167.574883
160.736442
146.484971
121.397972
102.299452
78.362823
61.754584
45.454502
36.992431
29.350519
26.110411
22.450686
21.217465
19.256473
18.078685
16.542673
16.042590
15.086532
14.017820
13.379455
12.444854
12.246966
11.464953
11.192560
10.754466
10.208488
10.459423
9.883642
10.016561
10.082722
9.735823
9.313822
9.086728
8.786917
8.396506
8.273721
7.616878
7.723570
7.368922
7.029772
6.951690
6.591678
6.358624
6.273985
6.176829
6.187558
5.652905
5.934834
5.795956
5.455613
5.559921
5.682707
5.554557
5.468726
##ZVALUE=280
0.706911
0.812411
0.892878
0.737906
0.823736
0.765920
0.761747
0.902414
0.815988
0.836849
0.755787
0.769496
1.056790
0.783801
0.900626
1.075864
1.067519
1.169443
1.408458
1.344681
1.372695
2.529621
12.601614
56.566000
125.685930
262.187719
391.883850
590.060949
732.211471
890.904665
959.267616
945.754647
853.919983
664.783716
505.131483
305.239558
190.850496
95.127821
62.078834
51.866770
59.542656
78.714490
93.867779
113.968849
125.021935
132.170916
128.971934
114.671588
94.669461
80.126524
56.386590
42.303801
28.837919
21.700859
16.414523
13.660789
12.635589
11.940598
11.220574
11.254549
11.023879
10.509491
10.753870
10.461807
10.313988
10.050535
9.942651
9.443760
9.408593
9.420514
9.126663
9.197593
8.972883
9.290576
8.659959
8.720756
7.900000
8.224845
7.648468
7.225871
7.011890
6.883740
6.786585
6.700754
6.263852
6.358624
6.413460
6.277561
6.012917
5.683899
5.753636
5.393624
5.455613
5.397797
5.260706
5.294681
##ZVALUE=285
0.584722
0.689626
0.718832
0.689626
0.643730
0.570416
0.876784
0.761747
0.780821
0.836849
0.855923
0.774860
0.937581
0.798702
0.765920
0.840425
1.060963
0.998974
1.102686
1.172423
1.123548
1.290441
1.422763
1.830459
5.397797
32.557845
76.833963
178.658962
295.763612
443.621874
648.983717
791.105628
933.351517
975.517035
910.338759
796.272755
584.775805
414.144993
224.280953
127.559900
65.296888
30.177832
27.459860
40.337443
55.038929
78.041553
93.024969
108.671784
116.311908
116.522908
106.304884
93.807578
73.293447
55.538416
36.257505
26.028752
16.342998
12.862682
10.329485
9.515882
9.452701
9.257793
9.270906
9.422898
9.513497
9.263754
9.597540
9.634495
9.573698
9.862781
9.656549
9.620786
9.509921
9.144545
9.138584
8.948445
8.452535
8.310676
7.942915
7.951856
7.504821
7.238984
7.049441
6.993413
7.013679
6.661415
6.435513
6.458759
6.095767
6.089807
5.742908
5.686879
5.780458
5.503893
5.445480
5.305409
##ZVALUE=290
0.595450
0.640750
0.519753
0.622869
0.649691
0.665784
0.752807
0.566840
0.674725
0.733733
0.887513
0.766516
0.746846
0.736713
0.859499
0.866652
0.969768
1.044869
1.029968
0.949502
1.004934
1.081824
1.250505
1.254678
1.439452
1.589656
2.430677
9.823442
47.118664
104.999542
191.951990
365.226865
526.130795
744.001865
876.354575
985.471010
979.043841
863.209963
716.110468
491.338968
331.442952
168.145895
88.088512
34.157634
20.930767
24.476647
34.138560
51.018000
66.641569
87.796450
101.617575
111.734867
112.591982
104.049444
90.715885
69.702864
53.763986
36.062598
25.564432
17.319918
13.073683
10.697842
10.148883
9.682775
9.729862
9.892583
9.832978
9.860992
10.030866
9.932518
10.066628
10.076761
10.097623
9.834766
9.439588
9.124875
8.916855
8.437634
8.219481
8.352995
7.932782
7.822514
7.580519
7.375479
7.326603
6.899834
6.967783
6.726980
6.437898
6.339550
6.110668
5.997419
5.656481
5.471706
5.425811
5.328655
##ZVALUE=295
0.604987
0.743866
0.627637
0.569820
0.601411
0.578761
0.683665
0.641942
0.712872
0.615716
0.677705
0.724792
0.710487
0.684857
0.685453
0.640750
0.944734
0.778437
0.701547
0.795722
0.914931
0.965595
1.076460
1.152754
1.047850
1.237988
1.423955
1.506805
1.802444
3.609657
14.864802
66.102743
138.970613
295.749903
443.959832
662.588477
809.937716
954.613686
993.990898
933.199525
813.095570
597.193837
424.915552
231.180787
126.857758
46.457648
22.521615
15.874505
20.243526
32.138824
44.938922
64.542890
79.754591
96.622705
105.985999
106.424689
101.813674
86.283684
71.200728
51.343441
38.906932
24.775863
18.195510
12.986660
10.986924
9.812713
9.767413
9.638667
9.794831
10.099411
9.638667
10.191798
9.918809
9.763837
9.519458
9.278655
9.193420
8.686781
8.377433
8.139610
8.037686
7.815957
7.625818
7.300973
7.150769
7.040501
6.761551
6.615520
6.489754
6.027818
6.130934
5.923510
5.526543
5.298853
5.559921
5.352497
##ZVALUE=300
0.649691
0.450611
0.519753
0.574589
0.677705
0.666976
0.679493
0.578761
0.507832
0.692606
0.665784
0.809431
0.662804
0.721812
0.593662
0.719428
0.627637
0.763535
0.655651
0.698566
0.889897
0.736713
0.946522
1.005530
0.976920
0.907779
1.155734
1.075864
1.007915
1.441836
1.469851
1.844764
8.955002
33.366680
106.964707
196.024776
368.801951
531.576872
746.550560
881.810784
991.608500
992.640853
884.387493
740.543604
505.578518
337.653756
173.422694
93.587637
34.724474
16.164780
13.645887
17.847419
29.050708
40.279627
58.230758
74.194670
91.739893
99.235773
102.533698
98.005533
85.009933
71.497560
51.980615
39.479733
25.888681
18.859506
12.751818
10.873675
9.691715
9.445548
9.454489
9.194613
8.934736
8.816719
8.701682
8.562803
8.452535
8.089542
7.817745
7.765889
7.754564
7.483959
7.211566
7.289648
6.791949
6.753802
6.520748
6.385446
6.192923
5.927682
5.834699
5.462766
5.326867
5.423427
5.112886
5.091429
##ZVALUE=305
0.553727
0.525713
0.448823
0.453591
0.714660
0.547767
0.711679
0.593662
0.628829
0.576973
0.665784
0.685453
0.734925
0.747442
0.703931
0.786781
0.698566
0.728965
0.689626
0.629425
0.750422
0.817776
0.900626
0.847578
0.883937
0.784993
1.142621
1.049638
1.135468
1.176000
1.253486
1.196861
1.515746
1.528859
2.987981
21.499991
59.870481
156.483650
265.926719
462.808609
626.041889
832.005739
952.873826
1007.965803
961.344838
788.475871
624.247789
406.660438
259.498954
119.800568
58.480501
20.052791
11.460781
12.395978
16.703606
27.463436
38.592815
56.068897
69.656968
86.262822
94.044805
97.460747
92.778802
80.502629
67.731738
49.417615
36.306977
24.313927
17.016530
11.625886
9.567738
8.653998
8.024573
7.743835
7.747412
7.481575
7.188916
7.340908
7.030964
6.896853
6.754994
6.744862
6.660819
6.432533
6.362796
6.040931
6.108880
5.950928
5.818605
5.774498
5.511642
5.169511
5.095601
4.914999
4.969835
4.926920
##ZVALUE=310
0.548959
0.459552
0.593662
0.531673
0.500679
0.518560
0.438690
0.601411
0.492930
0.524521
0.417829
0.516772
0.601411
0.609756
0.607967
0.700951
0.529885
0.586510
0.551939
0.741482
0.790954
0.807643
0.677705
0.759959
0.939965
0.765920
0.753999
0.970960
0.876784
0.904799
1.249909
0.996590
1.078844
1.302958
1.288652
1.415610
1.863837
6.217957
36.345720
83.898902
196.052790
322.330594
533.690453
704.205036
902.348757
997.338891
1009.228826
929.358006
734.681487
559.527874
335.447788
202.342868
86.481571
39.616823
13.861656
9.422898
11.200905
14.845729
23.135543
32.370687
47.887564
61.138868
77.215433
86.370707
90.224743
88.829994
78.241825
66.643953
48.638582
35.677552
23.086667
16.899705
10.773540
8.753538
7.248521
6.549954
6.407499
6.108880
5.873442
5.826950
5.867481
5.809665
5.733967
5.438924
5.423427
5.479455
5.429983
5.471706
5.397797
5.212426
4.923940
5.120635
4.684925
4.711747
4.690886
4.612803
##ZVALUE=315
0.548959
0.522733
0.390410
0.487566
0.440478
0.599623
0.403523
0.527501
0.636578
0.617504
0.527501
0.581741
0.733733
0.714660
0.517964
0.577569
0.698566
0.566840
0.506639
0.616908
0.661612
0.693798
0.656843
0.730753
0.882745
0.885725
0.757575
0.739694
0.833869
0.820756
0.920892
0.965595
0.960827
1.025796
0.987649
1.230836
1.232624
1.393557
1.532435
3.311634
13.204813
58.578849
124.448538
268.045664
422.592759
662.117004
817.745924
968.042016
1015.794873
974.610448
859.892964
639.466643
460.525751
254.646540
140.262842
51.246881
20.694733
8.832812
7.914901
9.731650
12.986660
20.720959
29.243827
43.768883
56.261420
71.768761
80.987811
85.739493
83.516836
72.858930
62.073469
46.925545
34.737587
21.763444
15.121698
9.321570
7.138848
5.900860
5.427599
5.034804
5.193949
5.090833
4.809499
4.927516
5.057454
4.702806
4.617572
4.830956
4.562736
4.631877
4.672408
4.731417
4.547834
4.533529
4.465580
4.381537
##ZVALUE=320
0.507832
0.440478
0.498891
0.484586
0.588894
0.470877
0.521541
0.469685
0.581741
0.629425
0.647902
0.536442
0.619888
0.534654
0.522733
0.601411
0.489950
0.577569
0.659823
0.545979
0.499487
0.720620
0.506639
0.646710
0.631809
0.781417
0.647902
0.726581
0.687838
0.870824
0.913739
0.757575
0.875592
0.964999
0.918508
1.044869
1.103878
1.231432
1.224875
1.244545
1.344681
1.840591
5.289912
30.986667
80.071688
201.739669
326.941013
530.687571
702.039003
905.057788
1002.381444
1014.834642
944.049954
751.775503
566.980839
327.605009
192.860961
82.181692
35.728812
11.094809
6.982684
6.901622
7.990599
11.390448
16.599894
27.597547
37.366748
52.625537
64.776540
75.945854
79.634786
77.535510
70.356727
56.775808
44.685602
29.891729
21.378994
13.158917
8.953810
6.146431
5.179644
4.812479
4.594922
4.543662
4.274845
4.150867
4.438758
4.494786
4.269481
4.199743
4.292727
4.344583
4.234910
3.976822
4.154444
4.085898
##ZVALUE=325
0.503659
0.607967
0.594854
0.513792
0.446439
0.453591
0.463724
0.467896
0.504851
0.505447
0.385642
0.469685
0.522733
0.504851
0.541806
0.572801
0.519753
0.483990
0.451803
0.524521
0.653863
0.662804
0.704527
0.646710
0.636578
0.668764
0.723600
0.751615
0.769496
0.645518
0.682473
0.796914
0.866652
0.774860
0.688434
0.886917
1.012683
0.829697
1.043677
1.123548
1.058578
1.190901
1.353621
1.470447
2.552867
17.807484
51.456690
140.065551
247.296691
442.878008
614.327788
833.536983
959.469676
1015.794873
980.162024
809.218884
631.960630
400.796533
252.877474
116.168857
53.443909
15.224814
7.308722
5.695820
6.087422
7.715821
10.102987
16.460419
24.136901
37.689805
48.636794
62.029958
69.768429
74.420571
72.471499
63.563585
53.462982
40.088892
29.299855
18.653870
12.808442
8.022785
6.090999
4.861951
4.499555
4.256964
4.249811
4.136562
4.147887
3.934503
3.919601
4.096627
3.797412
3.887415
4.039407
4.059672
##ZVALUE=330
0.428557
0.427961
0.542998
0.447631
0.500679
0.599623
0.528693
0.576973
0.540614
0.562668
0.475645
0.533462
0.433922
0.602603
0.616908
0.591874
0.457764
0.653863
0.589490
0.492930
0.576973
0.385642
0.710487
0.479817
0.463724
0.556707
0.692606
0.680685
0.644922
0.666976
0.595450
0.682473
0.694990
0.753999
0.662804
0.786781
0.755787
0.801682
0.897646
0.991821
0.876784
1.183748
1.008511
1.133680
1.093745
1.459718
1.642704
7.050633
24.978518
87.000728
170.224905
340.551734
502.138734
733.835697
885.659456
1006.649733
1003.725529
878.168941
728.322864
495.764017
330.360532
158.307552
80.299973
27.481914
10.386705
5.737543
5.592704
5.852580
6.895661
10.284781
14.739633
23.659468
32.729506
47.097802
56.758523
66.218972
69.458485
67.620873
61.146617
49.293637
38.908720
26.081800
19.173622
12.455583
8.986592
6.034970
4.896522
4.376769
4.224777
4.260540
4.106760
3.828406
4.020929
3.651977
3.879666
3.858805
##ZVALUE=335
0.406504
0.439882
0.425577
0.388622
0.539422
0.396967
0.473857
0.423789
0.394583
0.499487
0.633597
0.495911
0.444651
0.470877
0.379682
0.486970
0.478625
0.554919
0.626445
0.492930
0.424981
0.752807
0.553727
0.548959
0.579953
0.540614
0.592470
0.504851
0.734925
0.681877
0.520945
0.665784
0.710487
0.694990
0.682473
0.580549
0.693798
0.767708
0.785589
0.749826
0.887513
0.860691
0.835657
0.986457
0.794530
0.951886
1.163483
1.226664
1.372695
2.316833
14.941692
44.950843
129.395723
234.534740
432.104468
611.463785
839.229822
953.711867
1006.743908
962.345004
796.012878
624.041557
391.054749
243.378878
104.506612
47.736764
14.061928
6.649494
5.357862
5.144477
5.744696
6.619692
9.604692
13.777614
22.013783
30.334592
42.438507
52.224994
61.647892
64.533949
62.777996
57.333708
47.795773
39.250851
27.291775
20.061731
12.766719
9.014606
6.025434
5.100965
4.261732
4.127622
3.895760
3.632903
3.899932
3.797412
##ZVALUE=340
0.489950
0.301600
0.408888
0.558496
0.367761
0.389814
0.412464
0.325441
0.362992
0.404716
0.497699
0.430942
0.397563
0.412464
0.475645
0.412464
0.427961
0.451803
0.558496
0.467896
0.541806
0.509620
0.577569
0.467896
0.360608
0.572801
0.597835
0.428557
0.467896
0.627637
0.536442
0.585914
0.621676
0.478625
0.682473
0.743866
0.580549
0.713468
0.708699
0.834465
0.812411
0.705719
0.711679
0.641942
0.787973
0.923872
0.955462
0.936985
1.143813
1.070499
1.198649
1.812577
5.219579
29.975772
78.010559
199.931860
338.048935
559.220910
729.942918
913.489461
990.109444
968.417525
873.098969
671.246648
492.860675
277.343988
152.518749
56.968927
22.114515
7.431507
5.585551
5.327463
5.287528
5.367994
6.410480
9.006858
13.256669
20.800829
28.849840
41.069984
49.510598
57.864785
60.710907
59.372783
54.941773
45.457482
36.878586
26.427507
19.596815
13.083816
8.952618
5.682707
4.740953
4.166961
3.985763
3.767610
##ZVALUE=345
0.376701
0.529885
0.438690
0.399947
0.354648
0.473857
0.466704
0.411868
0.386834
0.435710
0.375509
0.429749
0.519753
0.514984
0.504851
0.544786
0.427961
0.468493
0.456572
0.462532
0.483990
0.494719
0.471473
0.591874
0.523925
0.521541
0.611544
0.523925
0.606775
0.534654
0.532866
0.629425
0.554919
0.545979
0.595450
0.580549
0.655651
0.583529
0.544786
0.654459
0.829697
0.822544
0.703931
0.805855
0.688434
0.651479
0.683665
0.813603
0.962615
0.943542
1.069903
1.265407
1.285672
1.420975
2.796650
11.886954
56.420565
121.617913
264.848471
411.430597
643.461943
806.165934
956.781507
991.311669
917.137861
782.648921
555.235744
376.997590
179.801583
88.626742
28.339624
11.133552
6.069541
5.519986
5.019903
4.824996
4.970431
5.753636
8.169413
12.074709
19.408464
26.793480
36.464930
44.294000
51.864982
55.878758
55.409670
51.669478
43.521523
36.589503
26.349425
19.337535
12.537837
8.444786
5.809665
4.683733
##ZVALUE=350
0.409484
0.485778
0.466704
0.484586
0.322461
0.413656
0.469685
0.410676
0.348687
0.511408
0.349879
0.408888
0.513792
0.555515
0.481606
0.555515
0.523925
0.544786
0.321865
0.473857
0.452995
0.465512
0.486970
0.553727
0.473857
0.525713
0.486970
0.652671
0.590682
0.589490
0.542998
0.603795
0.706911
0.355840
0.587702
0.587702
0.676513
0.496507
0.673532
0.686646
0.541806
0.646710
0.767708
0.623465
0.655651
0.726581
0.728965
0.843406
0.897646
0.981688
0.881553
0.834465
1.080632
0.991821
1.147985
1.371503
1.625419
7.169843
26.003718
89.925528
176.766515
357.859731
522.136688
740.025640
886.004567
983.858705
961.406827
826.385617
654.598475
408.023000
257.356763
120.732784
54.412484
14.407635
6.731749
4.998446
4.683733
4.327893
4.284978
4.364848
5.440712
7.823706
10.757446
17.140508
23.025870
32.298565
39.524436
46.942830
50.298572
50.967932
48.427582
41.515827
34.966469
26.036501
19.593835
12.943745
##ZVALUE=355
0.431538
0.461936
0.472665
0.361800
0.472665
0.469685
0.426769
0.434518
0.561476
0.535846
0.425577
0.445843
0.390410
0.420809
0.442863
0.545979
0.544786
0.418425
0.350475
0.528693
0.255704
0.515580
0.528693
0.647902
0.441670
0.523925
0.588894
0.472665
0.591874
0.536442
0.522733
0.507832
0.542998
0.390410
0.610948
0.482798
0.602603
0.683665
0.589490
0.668764
0.640750
0.742674
0.575781
0.748634
0.608563
0.678897
0.736713
0.696778
0.895858
0.838637
1.002550
0.848770
0.752807
0.985861
1.131892
0.995994
1.117587
1.297593
1.315475
3.539920
12.519956
57.256818
123.186707
265.730619
422.485471
660.614967
815.519691
948.006511
971.761942
868.451595
726.524591
502.696633
329.864621
151.022673
72.758794
21.338463
8.189678
5.042553
4.483461
4.345775
4.073977
3.955960
4.309416
5.013943
6.371737
9.800792
13.477802
20.339489
26.634932
34.984946
40.911436
45.556426
46.498775
44.193864
39.473772
32.073855
##ZVALUE=360
0.510812
0.487566
0.452995
0.397563
0.499487
0.464916
0.540614
0.464916
0.393987
0.411868
0.561476
0.439882
0.489950
0.450611
0.449419
0.493526
0.454783
0.489950
0.460744
0.397563
0.485778
0.557899
0.484586
0.528693
0.505447
0.541806
0.531673
0.437498
0.569820
0.629425
0.553727
0.393987
0.535846
0.562668
0.648499
0.559688
0.704527
0.707507
0.630617
0.549555
0.775456
0.646710
0.672936
0.627637
0.871420
0.812411
0.783801
0.700951
0.674725
0.701547
0.708699
0.784993
0.796914
0.781417
0.849962
0.987649
0.981688
0.955462
1.099706
1.258850
1.511574
1.999736
5.137920
26.975870
73.219538
191.031694
321.411490
529.909730
709.558725
894.493461
954.493880
927.222967
813.712478
585.768819
405.589938
207.065940
108.716488
38.551688
14.175773
5.163550
4.476905
4.233718
4.135966
3.897548
3.715754
3.959537
4.230738
5.454421
7.125735
10.954738
15.811920
23.560524
28.831959
36.026835
39.937496
42.308569
##ZVALUE=365
0.412464
0.313520
0.347495
0.518560
0.378489
0.387430
0.560880
0.368953
0.344515
0.469685
0.497699
0.437498
0.482798
0.492930
0.535846
0.481606
0.487566
0.499487
0.429749
0.561476
0.545979
0.447631
0.419617
0.586510
0.577569
0.551939
0.586510
0.508428
0.500679
0.631809
0.698566
0.598431
0.496507
0.585914
0.445843
0.540614
0.566840
0.620484
0.453591
0.554919
0.683665
0.740886
0.603795
0.721812
0.615716
0.675917
0.567436
0.790954
0.606775
0.639558
0.760555
0.612736
0.665784
0.746846
0.875592
0.766516
0.781417
0.847578
0.981688
1.183748
1.217723
1.327991
1.404881
1.401901
2.359748
12.773871
41.834712
127.681494
237.791538
435.214639
606.926680
812.010765
926.778913
969.021916
897.337794
697.934031
512.480736
291.584730
161.687732
59.368610
22.692680
6.371737
4.448891
4.112720
3.720522
3.650784
3.270507
3.232956
3.377795
3.568530
4.427433
6.396770
8.822680
13.514757
18.572807
25.184751
##ZVALUE=370
0.429749
0.477433
0.447631
0.456572
0.432730
0.420809
0.492930
0.356436
0.343919
0.362992
0.601411
0.433922
0.408888
0.450611
0.481606
0.563860
0.405908
0.437498
0.307560
0.404716
0.367761
0.397563
0.566840
0.531673
0.479817
0.486970
0.439882
0.459552
0.542998
0.511408
0.505447
0.626445
0.582933
0.583529
0.717640
0.594854
0.551939
0.604987
0.600815
0.602603
0.493526
0.562668
0.585914
0.504851
0.540614
0.645518
0.594854
0.644922
0.582933
0.562668
0.722408
0.648499
0.623465
0.590682
0.752807
0.724792
0.782609
0.827909
0.867844
0.875592
0.820756
0.926852
1.095533
1.063943
1.279712
1.371503
1.608729
6.610751
24.452806
89.455843
175.532699
343.089700
510.967970
737.454891
867.792964
942.618847
908.123851
763.281584
591.622591
350.997448
203.293562
79.945922
35.038590
10.568500
4.816651
3.740788
3.550649
3.329515
3.117919
3.232956
2.870560
3.025532
3.048778
4.016757
5.486608
8.061528
##ZVALUE=375
0.440478
0.403523
0.433922
0.409484
0.682473
0.583529
0.522733
0.596642
0.509620
0.481606
0.554919
0.473857
0.372529
0.499487
0.441670
0.420809
0.600815
0.548959
0.433922
0.534654
0.623465
0.448823
0.421405
0.472665
0.602603
0.441670
0.598431
0.584722
0.561476
0.539422
0.697970
0.478625
0.654459
0.774860
0.591874
0.607967
0.667572
0.622869
0.545979
0.627637
0.712872
0.600815
0.630617
0.675917
0.525713
0.763535
0.451803
0.470877
0.690818
0.764728
0.721812
0.700951
0.636578
0.728965
0.700951
0.879765
0.682473
0.869632
0.715852
0.843406
0.782609
0.870824
0.936985
0.885725
1.045465
1.136661
1.119971
1.259446
1.616478
2.948642
16.365647
46.363473
130.594969
240.771770
440.739989
601.858497
796.818733
900.575519
915.407538
834.601521
633.831024
467.015505
273.839831
157.363415
61.341524
24.622679
6.743670
4.025698
3.619790
3.293753
3.253818
2.892613
2.958775
2.834797
2.713799
2.760887
##ZVALUE=380
0.304580
0.364780
0.323653
0.218749
0.196695
0.447631
0.297427
0.323653
0.274777
0.274777
0.289679
0.535846
0.285506
0.332594
0.452995
0.231862
0.354648
0.350475
0.397563
0.407696
0.464916
0.296831
0.503659
0.451803
0.434518
0.319481
0.491738
0.507832
0.413656
0.424981
0.583529
0.615716
0.435710
0.609756
0.604987
0.631809
0.633597
0.632405
0.569820
0.640750
0.610948
0.413656
0.540614
0.642538
0.547767
0.425577
0.508428
0.634789
0.462532
0.475645
0.583529
0.378489
0.614524
0.521541
0.583529
0.579953
0.562668
0.585914
0.637770
0.669956
0.660419
0.690818
0.941753
0.781417
0.833869
0.753999
1.046658
0.967979
1.196861
1.426935
1.352429
2.140999
5.908608
32.750964
83.265901
207.377672
342.660546
548.728704
711.668730
870.838761
911.974907
844.876766
731.104016
542.760491
384.797454
201.588869
107.225776
37.468672
13.926625
4.395843
3.413558
3.025532
2.938509
2.759695
2.683997
2.637506
##ZVALUE=385
0.351667
0.359416
0.316501
0.361800
0.261664
0.357628
0.417829
0.407696
0.355840
0.474453
0.304580
0.289679
0.452995
0.246763
0.287890
0.299811
0.359416
0.390410
0.448823
0.379682
0.321865
0.298619
0.564456
0.271797
0.222921
0.445843
0.428557
0.377893
0.572801
0.582933
0.676513
0.808835
0.887513
0.677705
0.738502
0.865459
0.740886
0.732541
0.842810
0.687838
0.646710
0.723600
0.707507
0.614524
0.708699
0.531673
0.617504
0.743866
0.646710
0.573993
0.696778
0.410676
0.630617
0.483990
0.713468
0.457764
0.434518
0.592470
0.376701
0.582933
0.815988
0.669956
0.650883
0.591874
0.669956
0.729561
0.892878
0.882745
1.007915
1.092553
1.073480
1.324415
1.364946
1.393557
2.691746
16.361475
48.798919
136.098862
250.546932
457.907915
623.950958
805.863738
881.733894
881.958008
810.976624
636.927485
474.904776
275.285840
162.353516
67.814589
27.133822
6.376505
3.512502
2.868772
2.763867
2.620816
##ZVALUE=390
0.142455
0.104904
0.144839
0.230670
0.105500
0.257492
0.195503
0.289679
0.168681
0.152588
0.227690
0.141859
0.210404
0.180602
0.283718
0.167489
0.201464
0.198483
0.165701
0.264645
0.293851
0.014901
0.223517
0.286698
0.242591
0.290871
0.476837
0.485778
0.501871
0.579953
0.675917
0.797510
0.883937
0.966787
0.914931
0.996590
0.818968
0.901818
1.025796
0.936985
0.948906
0.814795
0.757575
0.722408
0.612736
0.693798
0.538826
0.588894
0.649691
0.466704
0.369549
0.350475
0.526905
0.572801
0.502467
0.475645
0.364780
0.506639
0.382662
0.460744
0.390410
0.480413
0.358820
0.565648
0.607967
0.632405
0.756979
0.800490
0.822544
0.844598
0.878572
0.963807
0.937581
0.892878
1.006722
0.997782
1.644492
5.889535
33.550858
86.098909
215.021968
348.889828
544.909835
696.802735
850.019455
903.858542
863.294601
759.525895
556.503534
394.174457
212.470889
111.880898
38.067698
13.503432
3.791451
2.962947
##ZVALUE=395
0.385642
0.366569
0.324845
0.446439
0.249743
0.254512
0.196695
0.294447
0.383854
0.369549
0.271797
0.266433
0.316501
0.230670
0.392795
0.422597
0.420809
0.362992
0.306964
0.329614
0.194907
0.434518
0.425577
0.427961
0.408888
0.597835
0.573993
0.591874
0.869632
0.913739
0.989437
1.020432
1.248717
1.389980
1.379848
1.234412
1.367927
1.487732
1.364946
1.347661
1.208782
1.097918
1.065731
1.089573
1.037717
0.939965
0.880957
0.956655
0.925660
0.850558
0.592470
0.824928
0.675917
0.679493
0.728965
0.742674
0.733733
0.508428
0.609756
0.563860
0.534654
0.653863
0.563860
0.729561
0.709891
0.832677
0.826716
0.929832
0.897646
1.017451
0.927448
0.892878
0.999570
0.962615
1.098514
0.966787
1.061559
1.256466
1.352429
3.312826
20.468831
55.971742
146.933794
257.646441
453.350544
616.039634
803.507566
890.411735
905.707479
830.633640
655.089617
484.596491
274.620652
153.496861
58.313608
24.329424
##ZVALUE=400
0.343919
0.390410
0.253916
0.347495
0.373721
0.284910
0.319481
0.276566
0.337958
0.276566
0.360608
0.287890
0.303984
0.332594
0.337958
0.389814
0.479817
0.438690
0.295639
0.317693
0.391603
0.409484
0.275970
0.344515
0.505447
0.496507
0.625849
0.737906
0.923872
1.086593
1.064539
1.421571
1.348853
1.556873
1.481771
1.444817
1.451969
1.360774
1.488924
1.497865
1.430511
1.446605
1.238585
1.091957
1.144409
0.961423
0.876784
0.977516
0.805855
0.996590
0.807643
0.875592
0.744462
0.813603
0.744462
0.652671
0.685453
0.799894
0.627637
0.657439
0.623465
0.549555
0.693798
0.663996
0.699759
0.807643
0.825524
0.855923
0.748634
1.033545
0.838637
0.921488
0.842810
0.878572
0.786781
0.756979
1.066923
1.007915
1.193881
1.126528
1.129508
2.213717
7.919669
34.643412
83.702803
203.249454
335.638523
540.120602
688.188672
835.641623
885.742903
835.539699
725.795627
524.594784
367.512703
198.579431
##END
