##TITLE=FAAI0802
##FORMAT=SPECTACLE-ASCII V-1.2
##DATA TYPE=ULTRAVIOLET SPECTRUM
##SECOND TYPE=ULTRAVIOLET SPECTRUM
##DATE=05/24/18
##TIME=17:01:27
##SPECTROMETER/DATA SYSTEM=SPECTACLE
##XUNITS=NM EM
##YUNITS=ENERGY
##YFACTOR=1
##FIRSTX=220
##LASTX=410
##NPOINTS=96
##3DDATA=Equidistant
##ZUNITS=NM EX
##FIRSTZ=210
##LASTZ=400
##ZPOINTS=39
##XYDATA=(Y..Y)
##ZVALUE=210
8.064508
9.093881
8.520484
7.355809
7.990599
6.875992
7.504821
7.139444
6.222725
5.188584
4.489422
3.805757
3.722906
3.751516
3.863573
4.768968
4.225969
4.572868
5.062819
4.896522
4.964471
4.937649
5.301833
6.966591
9.300709
14.280677
19.295812
26.336908
31.853914
43.679476
50.353408
59.034824
63.266754
69.837570
76.356530
73.911548
75.287819
72.809458
69.616437
67.177415
64.836740
61.759949
58.500767
55.523515
50.049424
47.949553
45.709610
42.231679
39.251447
33.445954
31.602979
30.563474
29.288530
24.915934
25.184751
20.822883
20.807981
18.875599
18.543601
17.808676
16.608834
15.072823
15.869737
17.187595
15.190840
15.016794
15.216470
18.329620
18.580556
21.316409
24.215579
26.040673
27.739406
32.110810
32.972693
31.845570
29.186606
28.611422
24.713874
23.350716
21.930933
17.803907
16.951561
12.628436
10.919571
9.808540
9.463429
9.167790
9.219646
10.252595
9.954572
11.726618
12.147427
14.318824
17.236471
20.111799
##ZVALUE=215
29.861927
28.736591
24.378896
18.356442
15.040636
15.569925
15.896559
13.577938
14.109612
13.758540
11.694431
9.292960
8.337498
6.373525
5.536675
5.097985
4.453659
4.911423
4.260540
4.396439
4.432797
5.092621
6.764531
6.753802
11.065602
16.713738
24.294853
38.318634
46.798587
62.840581
74.857473
92.958808
98.086596
107.367635
109.946728
114.908814
118.194818
110.521913
110.092759
107.200742
99.451542
94.074607
87.315440
80.157518
77.575445
71.883798
63.868761
59.586763
54.000616
50.591826
47.481656
39.181709
39.599538
37.921667
33.391714
29.640794
27.540922
24.417639
23.092628
22.850633
22.745728
17.854571
17.741919
17.719865
17.578602
16.791821
19.167662
17.990470
18.216968
20.721555
21.308661
22.653937
25.195479
24.746656
24.376512
25.262833
24.540424
22.391677
22.278428
18.637776
16.913414
14.188886
12.998581
12.693405
11.110902
9.594560
9.282827
8.731484
9.361506
9.317994
8.603930
9.078979
10.107756
9.317994
10.048747
11.496544
##ZVALUE=220
90.973973
92.534423
85.413456
71.713924
58.515668
42.377710
36.605000
29.469728
28.092861
27.112961
27.037859
26.490688
22.877455
18.792748
16.105771
12.178421
8.166432
6.817579
4.547834
4.423857
4.201531
5.428791
5.595684
7.031560
10.849833
21.433830
30.385852
46.798587
62.429905
83.552003
101.584792
123.072863
135.258436
144.585967
150.589943
155.016780
159.646869
158.583522
151.170492
136.325955
135.529637
126.143694
123.308897
111.011863
100.808740
93.740821
85.500479
79.731941
73.864460
66.717863
61.657429
54.948926
48.979521
45.049787
40.955544
38.065910
36.184788
31.717420
28.427839
25.608540
24.280548
24.269819
21.666884
20.032525
18.827915
18.539429
18.599629
17.597675
19.769669
20.390749
21.276474
21.641850
21.516681
21.918416
22.024512
22.013783
20.326972
19.419789
17.859936
16.331673
15.000701
13.133883
12.776852
11.878610
11.531711
9.108782
9.781718
9.202957
9.990931
8.736849
8.802414
8.018613
8.076429
9.025931
8.075833
8.188486
##ZVALUE=225
135.932565
145.347714
163.355470
177.569985
170.737505
152.099729
128.656626
92.582703
69.250464
54.039955
46.010613
44.333935
47.685504
46.398640
43.643713
40.018559
30.214787
23.325682
16.564727
10.379553
7.235408
5.485415
5.775690
6.522536
10.537505
19.443631
27.778745
43.421984
58.323741
77.999830
92.537999
113.470554
124.383569
136.018991
144.292712
150.585771
150.125623
148.413777
145.532489
136.521459
129.052997
123.469830
114.102960
108.135939
100.206733
91.444850
85.169673
77.236891
72.664618
67.208409
56.981444
54.545999
48.566461
44.387579
41.054487
36.572814
34.908652
30.809641
28.369427
26.738644
25.549531
22.638440
22.574663
19.393563
18.781424
18.860698
18.955469
17.107725
18.754601
19.899607
20.281672
19.353628
19.097924
20.048618
19.169450
19.760728
18.300414
16.848445
15.646815
14.423728
13.371706
12.589693
11.257529
10.953546
11.069775
10.418892
10.711551
10.464787
9.322762
9.735823
9.793639
9.500980
9.079576
8.909702
9.326935
8.353591
##ZVALUE=230
92.070699
104.011893
152.574778
224.006772
269.301534
302.714705
309.818983
267.650485
228.740573
182.232857
119.893551
88.230968
68.953633
65.913796
67.609549
73.271990
71.817636
64.831972
59.500933
42.730570
30.846596
19.288659
13.093948
9.140968
9.620786
12.533665
17.689466
27.002692
35.559535
42.489767
55.098534
63.896775
74.046850
81.225634
85.733533
85.800886
87.360740
87.884665
85.622668
81.927776
79.217553
72.555542
71.579814
67.756772
60.738921
55.767894
53.760409
49.916506
46.064854
41.411519
38.077831
36.816001
34.594536
30.435920
28.873682
27.987957
24.868846
22.465587
22.701621
22.043586
19.160509
18.565655
18.002987
17.227530
17.165542
16.941428
16.215444
16.737580
16.331673
17.050505
17.858744
18.498898
18.628836
18.694997
17.847419
17.797947
17.572641
16.401410
16.233921
15.274882
13.204813
13.480783
12.366772
11.568666
11.632442
12.599826
10.957718
10.963678
11.312962
10.964870
10.855794
10.374784
9.862781
10.857582
10.936856
10.219812
##ZVALUE=235
21.194816
24.415851
62.825680
113.708973
204.265714
276.585817
374.477506
423.621535
442.177653
410.885811
335.243940
262.796879
194.017887
126.358867
96.211433
81.990957
82.336664
90.181828
92.537999
93.168616
82.966685
70.338845
48.396587
35.506487
21.892786
16.256571
13.742447
13.167858
16.280413
19.414425
21.717548
25.607944
28.471947
30.822754
33.821464
35.922527
35.712719
37.364960
37.289858
33.233762
33.698678
32.331944
32.122731
30.243993
28.599501
28.276443
26.207566
24.875998
23.815632
21.652579
21.116734
19.898415
19.523501
18.386841
17.761588
16.448498
17.075539
15.809536
15.996695
14.395714
14.643669
14.678836
14.394522
13.474822
14.136434
12.991428
13.866425
14.068484
15.061498
14.599562
15.079975
16.577840
16.564727
17.425418
16.551614
16.704798
15.928745
15.618801
14.843941
14.173985
13.588667
13.107657
12.975931
12.376904
12.682676
12.643933
11.821985
12.494922
11.781454
11.876822
11.590719
11.295676
11.322498
11.262894
11.321902
11.577606
##ZVALUE=240
1.769662
1.831651
5.476475
24.270415
52.499771
118.651986
194.481611
320.692658
417.057872
490.700006
542.634726
529.045463
446.818471
365.558863
256.436467
179.306865
114.442706
94.621778
87.115765
93.768835
104.463696
108.687878
105.197430
89.189410
71.729422
51.211715
40.150881
25.518537
20.268559
15.311837
13.932586
13.702512
15.679598
17.582774
17.375946
18.646717
19.856691
19.672513
20.495653
20.115972
19.701719
19.312501
19.647479
19.833446
18.487573
17.894506
17.317533
17.253757
17.450452
16.294718
15.838742
14.641881
14.627576
14.163852
14.251471
13.507605
12.754798
11.622906
12.466908
11.966825
12.373924
11.410713
11.034608
11.056662
11.552572
11.150837
12.368560
11.853576
12.083650
13.101697
13.631582
14.214516
14.557838
15.461445
15.246868
14.353991
14.886856
14.090538
13.853908
12.859702
12.784600
12.216568
12.081861
12.529492
11.731982
11.941791
12.418628
12.003779
11.964440
11.648536
11.504889
11.545420
11.547804
11.091828
10.861754
11.560917
##ZVALUE=245
1.093745
1.188517
1.319647
1.591444
3.908873
11.712909
41.100979
86.553693
189.168453
285.561681
432.666540
529.607534
590.534806
603.328943
561.122894
453.202724
359.682441
237.443447
162.463784
103.826523
85.271001
86.231828
99.156499
109.251738
111.981630
107.018948
96.018910
82.448721
61.742663
48.829913
36.194921
28.268695
24.103522
22.527575
22.708774
22.465587
23.646951
23.153424
23.953915
23.459792
23.124814
23.285747
22.051930
22.296906
21.473765
20.297766
19.712448
18.437505
18.409491
17.717481
16.664863
16.376972
15.486479
14.638901
13.596416
12.676716
13.409853
12.273788
12.129545
11.543632
11.151433
9.857416
10.324717
10.300875
10.269880
9.866953
10.888577
10.334849
10.896921
11.812449
12.450814
12.512803
13.057590
12.874603
13.066530
12.686849
12.612939
12.618899
12.249947
11.934638
11.427999
10.601878
11.713505
11.673570
10.802746
11.216998
11.026859
10.869503
11.474490
10.303855
10.621548
10.564923
11.062622
10.774732
10.777712
10.736585
##ZVALUE=250
1.169443
1.088977
1.263618
1.167655
1.334548
1.141429
1.922846
6.226897
29.164553
63.029528
149.592757
247.869492
363.510847
516.744852
601.656437
654.968619
639.930964
556.975603
461.397767
308.094621
210.318565
136.713982
86.093545
77.566504
87.236762
101.120472
116.364956
121.109486
120.385885
111.651421
100.764632
83.043575
70.126653
52.886605
45.435429
39.620996
36.998987
35.220981
35.509467
34.286976
34.478903
32.903552
31.594634
29.936433
29.459000
28.234720
26.738644
24.870634
24.288893
21.296740
20.726919
19.381642
18.399954
16.529560
16.271472
14.195442
13.698936
13.691783
12.532473
12.471676
11.672974
10.943413
10.860562
10.648966
9.854436
10.304451
9.719729
10.266900
10.415912
10.682940
10.773540
11.091828
10.972619
11.243820
11.523962
11.606812
10.352731
10.600686
10.431409
10.339618
10.032654
10.194778
9.695888
10.227561
10.015965
9.472966
9.762645
9.737611
9.580851
9.449720
9.976625
9.928942
9.766817
9.804964
9.957552
9.818673
##ZVALUE=255
1.141429
1.020432
1.200438
1.136661
1.211762
0.874996
1.181960
1.356602
1.465678
4.158616
13.801455
47.309995
97.829700
209.728479
316.728950
479.816794
590.716004
689.304471
711.678863
652.892590
562.222004
444.682837
277.915597
174.714923
98.140836
76.810718
77.580810
91.129541
118.113756
135.842562
147.376657
150.428414
143.251419
125.992894
111.292005
91.439486
78.418851
64.521432
59.221983
53.677559
51.317811
49.454570
46.321750
44.684410
41.386485
38.218498
37.068725
33.550858
31.660795
29.322505
28.216839
25.479794
23.513436
21.637678
19.990802
19.024611
17.614961
15.906692
15.023947
14.380813
13.162494
12.086630
11.630654
11.777878
11.005998
10.437965
10.212660
9.848475
10.508895
10.430813
10.770559
10.467768
10.512471
10.184646
10.148883
10.007620
10.145903
9.947419
9.496808
9.027719
9.242892
8.827448
8.764863
8.649826
8.741617
8.769631
8.617640
8.374453
8.536577
8.660555
8.574724
8.451939
8.846521
8.981824
8.361936
8.943677
##ZVALUE=260
0.925660
0.834465
1.036525
0.855923
0.993609
0.923872
1.101494
0.962615
1.285672
1.003742
1.122952
1.881719
5.923510
26.227832
60.988665
148.587823
247.657895
406.141877
540.396571
693.043470
760.356784
759.829879
665.968657
538.927913
362.790823
248.951912
150.526762
104.696751
87.723732
97.196698
119.094849
150.292516
172.346830
185.794830
189.732909
176.798701
162.640810
137.304664
119.246840
97.614527
86.582899
74.405670
68.832636
61.966777
58.884621
53.676963
51.278472
46.819448
43.424964
40.016770
35.950541
33.048987
30.536652
27.334690
25.861859
23.030639
21.822453
19.439459
18.519759
16.928911
15.484691
14.059544
13.542771
13.078451
12.502670
11.659861
11.347532
10.846853
11.426806
10.333657
10.848641
10.453463
10.464787
10.128617
10.090470
9.653568
9.991527
9.247661
9.455681
8.641481
8.704662
8.539557
8.189678
8.389950
8.339882
8.146763
8.239746
8.153915
8.229613
8.073449
8.375645
8.182526
8.206964
8.013844
8.096695
7.990599
##ZVALUE=265
0.801682
0.994802
0.888705
0.851750
0.983477
1.102686
1.034737
0.870824
0.985861
1.190901
1.179576
1.169443
1.527667
1.445413
2.889633
16.045570
40.935874
107.757449
192.594528
364.589691
513.582826
656.070709
791.274905
819.457769
747.931600
649.095774
487.330556
357.825756
223.106742
156.925917
123.775601
117.903948
132.062435
167.133808
187.213421
208.800435
214.726925
209.951997
195.930004
172.407627
153.205991
125.459433
106.947422
87.530613
76.461434
67.760944
61.118603
55.639744
51.004887
46.964884
43.049455
39.388537
36.204457
32.824874
31.069517
27.233958
24.787784
23.123622
21.071434
19.018650
16.932487
16.113520
15.237927
14.019608
13.581514
12.324452
12.269616
11.650920
11.348724
11.531711
10.806918
10.863543
10.754466
10.238886
10.418892
10.011792
9.323955
9.261966
9.131432
8.397698
8.504987
8.178949
7.889867
7.797480
7.795691
8.125901
7.818937
7.583499
7.600784
7.883906
7.823706
8.115768
7.745624
8.038878
7.933974
7.688999
##ZVALUE=270
0.788569
0.652671
0.894666
0.853539
0.780821
0.732541
0.844598
0.760555
0.969768
1.103878
0.977516
1.072884
0.959635
1.086593
1.123548
1.347661
1.621842
6.832480
21.169782
71.813464
146.178603
257.445574
460.770726
620.713830
788.297653
858.212709
853.772759
785.514712
632.439852
495.210886
364.747643
228.586793
166.307688
130.432844
131.734610
153.249502
171.733499
194.177628
206.140876
209.591985
204.494596
186.827779
167.017579
138.780475
115.096569
91.178417
75.852871
62.994957
55.190921
48.915744
44.495463
39.568543
37.123561
33.305883
30.750632
27.566552
24.908781
23.673773
21.614432
19.261837
17.428994
16.194582
15.545487
14.338493
13.357997
12.916923
12.455583
11.816621
11.500716
11.075735
10.927916
10.498762
10.362864
9.955764
10.124445
9.291768
8.984804
9.103417
8.671880
8.203983
8.032918
7.935762
7.777810
7.474422
7.576942
7.650852
7.627606
7.517934
7.294416
7.341504
7.311702
7.368922
7.297993
7.505417
7.257462
7.557869
##ZVALUE=275
0.668764
0.723600
0.873804
0.832677
0.763535
0.793934
0.903606
0.832677
0.968575
0.767708
1.029968
1.050830
0.983477
1.070499
1.285672
1.066923
1.235604
1.337528
1.541972
2.714992
10.299683
45.302510
100.338459
224.743485
368.482471
574.773550
716.575980
856.509805
901.131034
863.493681
775.216818
593.649745
445.261598
275.053978
188.159943
122.375488
104.789734
108.145475
120.870471
141.758919
156.414509
171.420574
174.500942
168.278813
155.526996
131.546855
111.819506
86.616874
69.798827
53.212643
42.780638
34.608841
31.230450
27.108788
25.240779
22.375584
20.812750
19.113421
17.666817
16.324520
15.221834
14.330745
13.569593
12.539625
12.093782
11.306405
10.542870
10.506511
10.282993
10.148883
9.710789
9.815693
9.619594
9.606481
9.346604
9.003878
8.659959
8.250475
8.176565
7.688999
7.750988
7.514954
7.582903
7.581711
7.324815
7.464886
7.239580
7.575750
7.309914
7.205606
7.345676
7.055998
6.722808
7.227659
7.194877
7.062554
##ZVALUE=280
0.670552
0.738502
0.647902
0.765920
0.787973
0.848770
0.711679
0.673532
0.635982
0.861883
0.781417
0.748634
0.856519
0.976920
0.961423
0.927448
1.052618
0.970960
1.040697
1.111627
1.345873
1.423955
6.859899
24.957657
83.613992
157.132745
304.676890
452.858806
662.795901
795.953870
902.977586
911.244750
842.325687
663.239956
505.403876
307.614803
194.273591
103.286505
68.221688
55.512786
63.357949
80.557466
98.591447
118.660927
130.168796
137.536526
135.118961
123.376846
106.200576
82.997680
65.118670
45.846701
34.459829
24.071932
18.599629
15.233755
13.839602
12.930632
12.229681
11.607409
11.026859
10.392666
10.111928
9.904504
9.640455
8.792877
8.963943
8.701682
8.601546
8.628964
8.403659
8.402467
8.217692
8.536577
8.209944
7.986426
7.714629
7.448792
7.445812
7.498860
7.200837
7.238984
7.187724
6.996989
7.038713
7.297993
6.975532
7.153749
7.129908
6.717443
6.802678
6.950498
6.850958
6.855726
6.782413
6.535649
##ZVALUE=285
0.594854
0.606775
0.615716
0.591874
0.625849
0.593662
0.726581
0.663996
0.711679
0.583529
0.676513
0.698566
0.747442
0.793934
0.938773
0.870824
0.914931
1.089573
1.122952
0.918508
1.081824
1.094937
1.185536
1.321435
3.545880
11.612773
43.467879
94.772577
209.376812
340.544581
491.769910
703.264475
836.379528
916.481614
890.488625
751.383901
604.641438
387.677550
248.444676
122.722983
64.246655
32.204986
30.077696
41.447878
56.098700
79.393983
94.931722
109.997988
117.652416
117.680430
109.747648
93.588829
78.338981
55.577755
39.695501
24.475455
17.256737
12.262464
9.644628
8.333921
7.737875
7.373691
7.473826
7.530451
7.312894
7.275939
7.278919
7.423759
7.479787
7.630587
7.508993
7.689595
7.694960
7.635951
7.582903
7.792711
7.454753
7.270575
7.077456
6.591678
7.093549
6.987453
7.100701
6.788969
6.822944
6.991625
6.894469
7.173419
6.812811
7.016659
6.909966
6.941557
6.912947
6.722808
6.773472
6.680489
##ZVALUE=290
0.627637
0.663996
0.733733
0.593662
0.325441
0.496507
0.746846
0.611544
0.666976
0.581741
0.822544
0.812411
0.601411
0.638962
0.913739
0.712872
0.611544
0.794530
0.801682
0.949502
0.787973
0.979900
1.006722
1.171827
1.386404
1.366735
1.674891
4.740953
23.539662
56.029558
141.093731
251.135826
400.928855
627.111793
778.586864
911.305547
928.718448
832.411647
704.776645
490.925908
332.436562
172.159672
90.206861
34.723878
21.145940
24.275780
33.736825
49.726963
65.287948
86.242557
100.138783
110.188723
111.920834
104.165673
91.899633
70.114732
53.203702
34.448504
23.977757
14.910698
10.611415
7.900000
6.828904
6.475449
6.181598
6.671548
6.433725
6.594658
6.638765
6.869435
7.066727
7.319450
7.289648
7.320642
7.591844
7.186532
7.111430
6.827712
6.970763
6.943941
6.759763
6.901622
6.867647
7.007718
7.061958
7.086992
7.031560
6.962419
6.582737
7.060766
6.696582
6.855726
7.014871
6.758571
6.626844
6.899834
##ZVALUE=295
0.555515
0.614524
0.615716
0.673532
0.753999
0.623465
0.629425
0.558496
0.633597
0.580549
0.663996
0.656843
0.749826
0.723600
0.750422
0.765920
0.763535
0.796914
0.980496
0.875592
0.923872
0.890493
0.876784
0.884533
0.997782
1.064539
1.197457
1.215935
1.623631
1.987815
10.757446
33.098459
78.862906
196.751952
328.101516
541.809797
701.125860
865.674019
926.672816
890.066028
789.256692
589.533448
418.273807
224.981904
124.692917
48.582554
23.314953
15.595555
19.388795
31.010509
42.418838
61.320662
77.019930
94.455481
103.391409
105.944872
100.026727
85.328817
70.347786
50.317645
36.686659
22.015572
15.271902
9.391904
7.033944
6.181598
6.187558
5.928874
6.043911
6.251931
6.666780
6.547570
6.765723
6.835461
7.082820
6.755590
6.815791
6.956458
6.659627
6.875992
7.000566
6.808639
6.834865
7.006526
6.902814
7.050633
7.165670
7.139444
6.853938
6.868839
6.902814
6.578565
7.061958
6.708503
6.569624
6.581545
##ZVALUE=300
0.546575
0.479817
0.454783
0.496507
0.617504
0.575781
0.636578
0.491738
0.521541
0.538826
0.595450
0.562668
0.585914
0.657439
0.661612
0.695586
0.703931
0.642538
0.793934
0.738502
0.877976
0.855923
0.854731
1.034737
0.786781
0.771880
0.954866
1.108646
0.960827
1.301765
1.384616
1.526475
3.259778
18.512607
49.567819
134.949684
239.552855
431.990623
595.428944
794.478655
895.096660
930.117965
863.142014
684.057474
520.531535
306.259990
185.096860
82.973838
38.817525
14.539957
11.779666
17.048717
24.147630
39.004683
53.387880
72.871447
86.510777
98.567605
99.630952
94.380975
84.387660
66.420436
52.067637
35.477877
24.346709
14.566779
9.935498
7.144809
6.251931
5.988479
6.080866
6.135702
6.333590
6.572604
6.539822
6.325841
6.703734
6.672740
6.696582
6.651878
6.696582
6.744862
6.920695
6.924868
6.922483
7.147789
6.944537
6.765723
7.029772
6.858706
6.974936
6.959438
6.836653
6.776452
6.468892
6.741881
##ZVALUE=305
0.589490
0.560880
0.493526
0.501871
0.595450
0.415444
0.512600
0.572801
0.623465
0.591874
0.608563
0.497699
0.648499
0.660419
0.584722
0.643730
0.639558
0.693798
0.504851
0.635982
0.743866
0.634789
0.830889
0.709891
0.766516
0.738502
1.014471
0.846982
1.018643
0.966787
1.102686
1.337528
1.188517
1.450777
2.070665
10.338426
31.296611
94.689727
178.586841
347.509980
504.127741
718.441010
854.601860
935.132504
909.217596
763.139725
612.885952
401.019454
256.972909
121.252537
59.089661
19.549727
10.200739
10.609627
14.624596
24.448633
35.387874
53.915977
66.423416
82.392693
90.235472
94.837546
90.994835
79.629421
66.555738
47.470927
35.203695
22.263527
15.033484
9.630919
7.491708
6.375909
6.347895
6.410480
6.313920
6.184578
6.270409
6.224513
6.261468
6.539822
6.590486
6.650686
6.870627
6.810427
6.805658
6.917715
6.990433
6.905794
6.949902
6.726980
6.871819
6.559491
6.661415
6.772876
6.414652
6.558895
##ZVALUE=310
0.566840
0.437498
0.527501
0.437498
0.516772
0.476837
0.595450
0.475645
0.526905
0.490546
0.593662
0.497699
0.570416
0.604987
0.624657
0.686646
0.564456
0.533462
0.680685
0.605583
0.731945
0.584722
0.622869
0.704527
0.780821
0.664592
0.734925
0.704527
0.904799
0.900626
1.027584
0.918508
1.019835
1.085997
1.024604
1.283884
1.365542
4.445910
15.327930
55.799484
113.200545
250.764489
393.660665
610.039830
772.769451
919.495821
942.181945
864.385962
740.022659
522.134900
359.719992
185.837746
99.684596
34.927726
13.965964
7.976890
8.938909
13.634562
19.753575
31.599998
43.383837
60.745478
72.824955
84.598660
88.571906
85.885525
78.568459
64.146519
50.503612
34.042597
24.433732
15.503764
10.778904
7.684827
6.526709
6.325841
6.052852
6.235838
6.240606
6.326437
6.384850
6.676912
6.405711
6.629825
7.038713
6.926656
7.016659
6.832480
7.013679
6.977916
6.930828
6.845593
6.928444
6.676912
6.820560
6.605983
##ZVALUE=315
0.486970
0.497699
0.516772
0.488758
0.517964
0.544786
0.504851
0.371933
0.504851
0.512600
0.586510
0.465512
0.562668
0.520945
0.572801
0.607967
0.675917
0.551939
0.531673
0.554919
0.557899
0.698566
0.674725
0.692606
0.717640
0.777841
0.640750
0.789762
0.798702
0.906587
0.796914
0.764728
0.671744
0.993609
1.019835
0.972748
1.041889
1.306534
1.415610
2.329946
7.795691
32.936931
78.710914
190.182924
316.908956
532.432795
691.023469
863.187909
935.281515
917.146802
822.686553
625.432730
457.791686
254.838467
142.092705
52.618980
20.864606
7.829666
7.182956
8.537769
11.547804
19.073486
27.428865
41.203499
54.489970
70.606470
79.804659
84.426999
82.761645
73.569417
62.770844
48.007965
35.996437
22.238493
15.624762
9.922981
7.835627
6.907582
6.235838
6.323457
6.302595
6.601810
6.567836
6.396770
6.556511
6.693602
6.820560
6.702542
6.823540
6.914735
6.666780
6.870627
6.764531
6.731749
6.744862
6.561875
##ZVALUE=320
0.474453
0.407696
0.496507
0.388622
0.440478
0.420809
0.496507
0.463724
0.703931
0.521541
0.504851
0.543594
0.454783
0.576973
0.560880
0.562668
0.562668
0.698566
0.645518
0.547767
0.671744
0.724792
0.712872
0.672936
0.652671
0.560880
0.731945
0.544786
0.781417
0.899434
0.716448
0.821948
0.858903
0.800490
0.808835
0.890493
1.048446
0.943542
1.075864
1.136661
1.287460
1.472831
3.445745
18.143654
48.617721
134.668946
233.216882
409.853458
573.263764
781.209469
893.110633
941.164494
889.186859
721.463561
550.977588
324.711800
192.706585
82.494617
36.248565
10.943413
6.746650
6.446838
7.534623
11.039972
15.766621
26.545525
36.299825
51.226616
63.574910
76.309443
79.564452
78.496933
71.891546
58.679581
46.580434
32.497644
23.424625
15.441775
11.095405
7.968545
7.166862
6.576777
6.591678
6.565452
6.532669
6.554723
6.683469
6.619692
6.754994
6.591678
6.612539
6.370544
6.494522
6.453991
6.529689
6.593466
##ZVALUE=325
0.321865
0.480413
0.381470
0.377893
0.445843
0.385642
0.464916
0.468493
0.501871
0.423789
0.547767
0.355840
0.703931
0.392795
0.527501
0.735521
0.589490
0.519753
0.468493
0.539422
0.453591
0.577569
0.585914
0.574589
0.498891
0.659823
0.751615
0.693798
0.596642
0.542998
0.670552
0.740886
0.710487
0.810623
0.902414
0.828505
0.784993
0.914931
0.973940
0.971556
1.043677
1.199841
1.161695
1.262426
1.911521
11.403561
31.064749
88.363886
166.528821
332.724452
487.285852
700.931549
838.039517
930.251479
916.072726
773.350596
615.885854
398.205519
249.608755
113.355517
54.296851
16.399622
7.590652
5.946755
6.087422
7.633567
9.967685
16.668439
24.028420
36.580563
48.184991
61.799884
70.132613
74.740648
74.088573
66.030622
56.520700
42.794943
32.279491
20.920634
15.302896
10.137558
8.427501
6.975532
6.735921
6.810427
6.477833
6.294847
6.443858
6.315708
6.270409
6.404519
6.330609
6.488562
6.356835
6.292462
##ZVALUE=330
0.325441
0.380874
0.403523
0.422597
0.451803
0.545979
0.550747
0.423789
0.505447
0.520945
0.552535
0.285506
0.387430
0.527501
0.594854
0.667572
0.504851
0.608563
0.613928
0.435710
0.486970
0.469685
0.504851
0.466704
0.557899
0.422597
0.633597
0.560880
0.731945
0.608563
0.670552
0.693798
0.617504
0.699759
0.684857
0.782609
0.753999
0.582933
0.812411
0.761747
0.887513
1.005530
0.887513
0.987649
1.264811
1.195669
1.463890
4.747510
15.475750
55.641532
114.357471
247.678757
385.380387
598.880649
756.438971
897.907615
921.061635
826.225877
695.213675
484.941006
325.323939
158.649683
81.271529
28.049946
10.895729
5.819798
5.622506
5.935431
7.061958
10.513663
14.936924
23.452640
32.568574
46.789646
56.687593
67.106485
70.400834
68.822503
63.355565
51.746964
41.290522
29.191971
21.824837
14.981627
11.129975
8.322597
7.432699
6.593466
6.393790
6.395578
6.463528
6.099939
6.247759
6.038547
6.058812
6.209612
##ZVALUE=335
0.382662
0.373721
0.373721
0.405908
0.321865
0.325441
0.433922
0.528693
0.347495
0.550747
0.646710
0.346899
0.471473
0.419617
0.547767
0.465512
0.392795
0.449419
0.502467
0.512600
0.552535
0.590682
0.572801
0.602603
0.439882
0.513792
0.540614
0.495911
0.538826
0.591874
0.496507
0.587702
0.660419
0.662804
0.624657
0.672936
0.746846
0.757575
0.735521
0.809431
0.759959
0.682473
0.770688
0.900626
0.935793
1.010895
1.111627
1.317859
1.253486
2.280474
7.499456
33.007860
74.291825
179.881454
305.548906
519.123673
678.981543
845.043659
909.577012
873.978734
770.677924
562.841892
400.503874
219.303966
119.587779
43.515563
16.441941
6.672740
5.738735
5.611777
6.039739
7.402897
9.479523
15.009642
21.080971
32.346845
41.848421
54.076910
60.836673
66.034794
66.038966
58.987737
51.113963
39.730668
30.999780
21.112561
15.754700
10.671616
8.592606
6.992817
6.297827
6.217957
5.978942
5.868673
5.798936
5.722642
##ZVALUE=340
0.370741
0.492930
0.516772
0.361800
0.399947
0.444651
0.486970
0.345707
0.421405
0.530481
0.456572
0.463724
0.369549
0.531673
0.490546
0.395775
0.399947
0.471473
0.484586
0.444651
0.474453
0.559688
0.290871
0.449419
0.455976
0.640750
0.587702
0.640750
0.602603
0.560880
0.537634
0.603795
0.530481
0.621676
0.740886
0.543594
0.602603
0.639558
0.554919
0.779629
0.690818
0.678897
0.696778
0.728965
0.841618
0.941753
0.892878
0.977516
0.874996
1.116991
1.194477
1.343489
3.580451
19.195676
50.745606
137.556791
247.457623
441.854596
595.677495
782.023668
873.322487
889.271498
816.316009
643.733740
475.988984
265.107751
151.174664
61.160922
24.086833
7.527471
6.061792
5.762577
5.631447
5.953908
6.640553
9.482503
13.693571
20.915866
28.997660
41.537881
50.006509
59.261918
61.736703
61.050653
57.197809
48.399568
39.667487
29.113889
22.208691
15.105605
10.942817
7.845759
6.625652
6.202459
5.827546
5.707741
##ZVALUE=345
0.420809
0.318885
0.471473
0.457764
0.385642
0.213981
0.474453
0.369549
0.467896
0.392795
0.469685
0.400543
0.329614
0.424981
0.379682
0.253916
0.528693
0.360608
0.478625
0.546575
0.463724
0.487566
0.570416
0.533462
0.531673
0.294447
0.505447
0.489950
0.563860
0.589490
0.421405
0.501871
0.593662
0.493526
0.599623
0.609756
0.604987
0.526905
0.742674
0.697970
0.741482
0.636578
0.596642
0.581741
0.541806
0.662804
0.702739
0.823736
0.769496
0.859499
1.023412
0.961423
0.964999
1.096725
1.842976
10.309815
31.542778
91.108680
173.421502
336.586833
488.299727
696.623921
817.369819
886.699557
858.407617
707.077980
552.825928
344.779491
203.683972
83.107948
36.877990
11.400580
6.517768
5.688667
5.454421
5.149841
5.423427
6.430745
8.178949
13.194680
18.732548
28.604865
36.319494
45.771599
51.567554
56.516528
57.077408
52.841902
46.935678
37.707686
30.186772
20.447969
15.382767
10.324717
7.925630
6.286502
##ZVALUE=350
0.454783
0.454783
0.348687
0.343919
0.249743
0.500679
0.423789
0.380874
0.474453
0.369549
0.416636
0.468493
0.383854
0.401735
0.407696
0.415444
0.516772
0.460744
0.457764
0.515580
0.464916
0.600815
0.384450
0.467896
0.445843
0.517964
0.674725
0.586510
0.366569
0.402927
0.412464
0.519753
0.472665
0.441670
0.453591
0.506639
0.636578
0.458956
0.516772
0.633597
0.499487
0.704527
0.648499
0.522733
0.534654
0.712872
0.771880
0.787973
0.722408
0.739694
0.728965
0.905991
0.940561
0.844598
1.087785
1.087785
1.337528
4.862547
17.185807
59.451461
120.748878
260.774493
398.309827
597.384572
743.140578
862.634778
870.580673
762.899518
618.214607
404.812694
255.097747
119.129419
54.844618
15.382767
6.970763
5.430579
5.039573
4.911423
4.865527
5.084872
5.921721
8.142591
11.150837
17.470717
23.195744
32.442808
39.791465
47.469735
51.242709
52.073598
50.020814
43.060780
36.540627
27.897954
21.548867
14.588833
##ZVALUE=355
0.428557
0.459552
0.307560
0.328422
0.454783
0.405908
0.465512
0.366569
0.476837
0.348687
0.467896
0.598431
0.445843
0.385642
0.382662
0.402927
0.468493
0.368953
0.336766
0.416636
0.558496
0.278950
0.470877
0.540614
0.493526
0.536442
0.496507
0.518560
0.437498
0.421405
0.417829
0.546575
0.670552
0.592470
0.607967
0.512600
0.660419
0.650883
0.565648
0.688434
0.582933
0.608563
0.731945
0.716448
0.620484
0.637770
0.683665
0.779629
0.788569
0.679493
0.671744
0.762939
0.771880
0.755787
0.816584
0.949502
1.059771
0.976920
1.094937
2.299547
8.599758
37.791729
82.668662
188.084841
314.886570
521.687865
672.474504
818.660855
865.641832
799.014568
681.766868
482.536554
317.962766
148.928761
72.635412
21.843910
8.680820
5.212426
4.927516
4.652739
4.562736
4.559755
4.631877
5.343556
6.614923
9.721518
13.881922
20.545721
26.874542
34.915805
41.210651
46.318769
47.967434
45.933723
41.698813
34.789443
##ZVALUE=360
0.418425
0.349879
0.301600
0.379682
0.328422
0.486970
0.344515
0.401735
0.511408
0.359416
0.367761
0.394583
0.462532
0.650883
0.525713
0.417829
0.438690
0.322461
0.471473
0.430942
0.600815
0.373721
0.629425
0.516772
0.548959
0.558496
0.463724
0.657439
0.341535
0.528693
0.585914
0.667572
0.528693
0.430942
0.516772
0.581741
0.608563
0.748634
0.539422
0.655651
0.496507
0.583529
0.525713
0.643730
0.491738
0.811815
0.540614
0.685453
0.705719
0.710487
0.772476
0.728965
0.836849
0.890493
1.002550
0.888705
0.850558
0.899434
1.044869
1.241565
1.235604
1.562834
3.764629
18.226504
48.270822
130.984783
231.110454
405.359864
566.746593
753.953457
833.344460
834.359527
749.863982
554.540753
391.423702
203.822851
109.075904
39.778948
14.575720
5.576611
4.734993
4.424453
4.169941
4.088879
4.241467
4.256964
4.785657
6.021857
7.550716
11.324883
15.916824
23.448467
29.563904
36.568642
40.987730
43.205619
##ZVALUE=365
0.619888
0.616908
0.443459
0.585914
0.591874
0.549555
0.568628
0.591874
0.619888
0.569820
0.621676
0.554919
0.627637
0.518560
0.520945
0.603795
0.598431
0.520945
0.655651
0.733733
0.679493
0.649691
0.698566
0.687838
0.621676
0.690818
0.542998
0.735521
0.569820
0.677705
0.809431
0.665784
0.822544
0.653863
0.723600
0.732541
0.637770
0.602603
0.648499
0.663996
0.757575
0.883937
0.801682
0.743866
0.630617
0.730753
0.905991
0.690818
0.760555
0.834465
0.802875
0.977516
0.928640
0.895858
0.971556
0.888705
0.992417
0.861883
1.086593
1.286864
1.062751
1.293421
1.397729
1.510978
1.816750
8.663535
27.404428
85.171461
169.931650
436.753631
503.686666
776.711702
796.811581
798.544884
782.054663
647.540689
432.021618
207.908750
138.803720
37.823915
19.123554
8.363724
4.603863
4.468560
4.110932
4.050732
4.082918
3.998876
3.952980
4.249811
5.193949
6.421804
9.863973
13.495684
19.827485
24.743676
##ZVALUE=370
0.439882
0.322461
0.493526
0.388622
0.260472
0.382662
0.474453
0.402927
0.461936
0.254512
0.375509
0.333786
0.554919
0.372529
0.464916
0.337958
0.414848
0.380874
0.407696
0.283718
0.435710
0.457764
0.466704
0.365973
0.453591
0.421405
0.402927
0.313520
0.572801
0.493526
0.593662
0.624657
0.532866
0.638962
0.528693
0.480413
0.576973
0.526905
0.496507
0.644922
0.441670
0.500679
0.490546
0.469685
0.568628
0.582933
0.440478
0.520945
0.717640
0.686646
0.574589
0.549555
0.562668
0.769496
0.584722
0.665784
0.591874
0.742674
0.770688
0.843406
0.715852
0.942945
0.894666
0.922680
0.957847
1.167655
1.244545
4.737973
16.686916
60.517788
120.829940
251.529813
391.178727
598.132014
726.937652
818.596482
802.289844
680.316687
534.161925
322.898626
191.371441
78.540444
35.954714
11.358857
5.337000
4.061460
3.720522
3.563762
3.490448
3.475547
3.326535
3.294945
3.690720
4.477501
5.691648
8.187890
##ZVALUE=375
0.400543
0.317693
0.346899
0.357628
0.387430
0.452995
0.396967
0.414848
0.434518
0.396967
0.389814
0.541806
0.353456
0.308752
0.337958
0.499487
0.388622
0.395775
0.384450
0.518560
0.353456
0.405908
0.493526
0.445843
0.436902
0.456572
0.438690
0.485778
0.498891
0.502467
0.364780
0.363588
0.648499
0.539422
0.532866
0.518560
0.495911
0.392795
0.588894
0.556707
0.590682
0.580549
0.449419
0.410676
0.469685
0.413656
0.552535
0.410676
0.514984
0.508428
0.730753
0.518560
0.527501
0.465512
0.634789
0.518560
0.573993
0.479817
0.629425
0.683665
0.527501
0.701547
0.752807
0.737906
0.895858
0.767708
1.145601
1.257658
1.204610
2.465844
8.189678
34.016967
79.638958
192.971826
317.848921
514.454842
653.173923
779.816508
808.565617
728.443861
601.048470
398.265719
264.555812
136.504769
69.492459
21.550655
7.933974
3.887415
3.588796
3.213882
3.069639
3.099442
3.001690
2.942681
3.023744
3.211498
##ZVALUE=380
0.358820
0.409484
0.193715
0.299811
0.366569
0.406504
0.264645
0.314713
0.386834
0.258684
0.341535
0.310540
0.202656
0.270605
0.333786
0.357628
0.374913
0.533462
0.413656
0.440478
0.359416
0.510812
0.415444
0.451803
0.508428
0.376701
0.469685
0.491738
0.462532
0.660419
0.457764
0.479817
0.500679
0.449419
0.552535
0.688434
0.544786
0.444651
0.437498
0.424981
0.454783
0.548959
0.572801
0.524521
0.494719
0.465512
0.489950
0.422597
0.619888
0.504851
0.495911
0.525713
0.497699
0.634789
0.451803
0.522733
0.596642
0.575781
0.796914
0.598431
0.543594
0.683665
0.625849
0.646710
0.739694
0.780821
0.722408
1.074672
1.021624
1.101494
1.247525
1.526475
3.986955
22.850633
57.809949
149.425864
256.240964
432.563424
580.036640
736.790895
795.518756
758.760571
661.636591
482.261777
342.600942
181.575418
97.690821
34.498572
13.333559
4.609823
3.262758
3.215671
3.289580
2.874732
2.724528
2.923608
##ZVALUE=385
0.465512
0.368953
0.126958
0.531673
0.354648
0.302792
0.413656
0.335574
0.275970
0.376701
0.263453
0.232458
0.262856
0.351667
0.223517
0.275970
0.366569
0.269413
0.296831
0.408888
0.321865
0.323653
0.350475
0.424981
0.538826
0.432730
0.380874
0.518560
0.546575
0.535846
0.646710
0.698566
0.721812
0.665784
0.763535
0.724792
0.943542
0.556707
0.720620
0.756979
0.722408
0.845790
0.651479
0.751615
0.663996
0.664592
0.382662
0.501871
0.584722
0.596642
0.580549
0.626445
0.649691
0.470877
0.536442
0.539422
0.520945
0.635982
0.618696
0.522733
0.613928
0.471473
0.662804
0.766516
0.607967
0.714660
0.854731
0.756979
0.929832
0.994802
1.105666
1.148582
1.196861
1.227856
2.313852
8.481741
36.809444
86.461902
203.458667
329.816937
525.164008
653.393865
763.019919
787.011981
719.733834
610.668659
420.101881
284.435749
138.104558
70.330501
22.984743
7.905960
3.522635
2.990961
3.007650
2.941489
##ZVALUE=390
0.295639
0.360608
0.270605
0.181794
0.388622
0.270605
0.232458
0.338554
0.238419
0.223517
0.335574
0.324845
0.341535
0.227690
0.239611
0.413656
0.360608
0.331998
0.354648
0.274777
0.349879
0.491738
0.377893
0.348687
0.386834
0.287890
0.401735
0.629425
0.777841
0.750422
0.814795
0.856519
0.907779
1.087785
1.040697
1.003742
1.047850
1.038909
1.074672
1.012683
0.894666
0.870824
0.857711
0.782609
0.795722
0.711679
0.894666
0.741482
0.624657
0.661612
0.747442
0.545979
0.628829
0.612736
0.607967
0.707507
0.649691
0.599623
0.622869
0.663996
0.574589
0.712872
0.607967
0.603795
0.624657
0.621676
0.633597
0.860691
0.839829
0.761747
0.912547
0.865459
0.867844
0.982881
0.997782
0.948906
1.384616
5.626678
19.943714
70.475936
142.925978
291.741490
421.230793
590.144992
707.798004
792.623758
780.681968
672.041774
543.162823
357.759595
220.406651
94.959736
43.163896
11.335611
4.309416
2.934933
##ZVALUE=395
0.261664
0.361800
0.283718
0.364780
0.283718
0.418425
0.419617
0.366569
0.273585
0.267625
0.398755
0.300407
0.352859
0.316501
0.389814
0.420809
0.331998
0.313520
0.279546
0.409484
0.362992
0.271797
0.292659
0.323653
0.567436
0.585914
0.561476
0.669956
0.866652
1.016855
1.155734
1.184940
1.300573
1.467466
1.412630
1.511574
1.364946
1.600981
1.479983
1.219511
1.354814
1.202822
1.138449
1.130700
1.103878
1.061559
0.913739
1.050830
0.862479
0.796914
0.769496
0.841618
0.591874
0.582933
0.720620
0.535846
0.612736
0.716448
0.511408
0.632405
0.637770
0.608563
0.760555
0.648499
0.669956
0.642538
0.778437
1.089573
0.874996
0.837445
0.809431
0.810623
0.942945
0.761747
0.690818
0.921488
0.766516
1.033545
1.085997
3.091693
11.874437
48.137903
99.200606
205.904841
324.749947
515.395999
651.952624
776.283741
805.454850
741.691589
623.321533
423.658490
281.131864
132.147670
65.807700
20.927787
##ZVALUE=400
0.311732
0.405908
0.384450
0.272989
0.271797
0.279546
0.377893
0.350475
0.510812
0.386834
0.289679
0.259876
0.344515
0.381470
0.341535
0.318885
0.358820
0.436902
0.391603
0.368953
0.445843
0.327826
0.462532
0.424981
0.572801
0.454783
0.675917
0.729561
0.848770
1.086593
1.355410
1.311898
1.290441
1.583695
1.539588
1.570582
1.752973
1.620650
1.612902
1.575947
1.505613
1.335740
1.325607
1.110435
1.192689
1.078844
1.143813
1.003742
0.946522
1.076460
1.007915
0.799894
0.837445
0.753999
0.790954
0.655651
0.675917
0.700951
0.545979
0.759959
0.584722
0.707507
0.706911
0.656843
0.732541
0.601411
0.754595
0.769496
0.902414
0.702739
0.735521
0.872612
0.774860
0.816584
0.724792
0.682473
0.698566
0.813603
0.862479
0.905991
0.913739
1.798868
5.549788
24.270415
58.518648
147.265792
251.597762
423.833728
559.317470
704.980493
769.180655
749.362707
660.822988
482.558012
341.335535
185.868740
##END
