##TITLE=FKDZ0102
##FORMAT=SPECTACLE-ASCII V-1.2
##DATA TYPE=ULTRAVIOLET SPECTRUM
##SECOND TYPE=ULTRAVIOLET SPECTRUM
##DATE=05/24/18
##TIME=18:31:32
##SPECTROMETER/DATA SYSTEM=SPECTACLE
##XUNITS=NM EM
##YUNITS=ENERGY
##YFACTOR=1
##FIRSTX=220
##LASTX=410
##NPOINTS=96
##3DDATA=Equidistant
##ZUNITS=NM EX
##FIRSTZ=210
##LASTZ=400
##ZPOINTS=39
##XYDATA=(Y..Y)
##ZVALUE=210
4.666448
5.256534
4.335642
5.115867
5.583763
4.945993
5.371571
4.631877
4.447699
3.857613
3.111959
3.609657
3.164411
3.495812
3.610849
3.560781
4.000664
4.020929
4.196763
3.917813
3.726482
4.805923
4.862547
5.475879
6.805658
8.853674
11.839867
14.493465
16.939640
18.367767
23.303628
25.067925
29.201508
32.009482
31.158924
32.297969
33.152699
31.593442
30.503869
29.868484
27.873516
26.126504
26.704669
22.789836
22.056699
21.425486
19.474626
18.329620
17.846823
17.898679
14.765859
14.785528
14.236569
14.826655
13.771653
12.463927
11.796951
11.019707
11.028647
10.987520
10.382533
9.974837
8.579493
10.004640
10.500550
11.232495
11.640787
12.804866
14.788508
15.682578
17.546415
19.897819
20.616651
21.057725
21.940470
22.083521
21.595955
19.985437
19.223690
18.227696
14.847517
12.028813
9.968877
9.519458
8.419752
7.524490
7.737875
7.419586
7.599592
7.773638
8.194447
8.214712
10.109544
10.835528
11.496544
12.211800
##ZVALUE=215
18.677711
18.181801
15.694499
12.612939
10.756850
10.541677
11.251569
10.821819
11.486411
9.673834
9.156466
7.474422
5.616546
5.014539
4.116893
4.736781
3.971457
3.771782
3.995895
3.787875
5.429983
5.072951
5.854964
5.188584
7.494688
10.937452
14.784932
20.086765
28.074980
30.968785
38.222671
44.770837
48.338771
54.554939
54.741502
56.766868
57.061911
56.901574
53.830743
52.750707
49.207807
47.919750
44.163465
40.674806
37.957430
35.737753
32.442808
31.928420
27.094483
25.880933
24.229884
23.659468
20.330548
19.864440
18.306971
17.206669
15.797615
14.931560
15.426874
12.509823
12.753606
12.750626
12.753606
12.363791
12.780428
12.022853
12.596846
13.093948
16.817451
15.750527
17.766953
18.385649
18.732548
18.307567
20.473599
20.541549
19.511580
18.132925
16.473532
14.781952
14.310479
11.591911
10.064840
9.886622
9.075999
7.955432
7.706881
8.189678
7.612705
7.507801
7.246733
6.848574
7.212758
7.315874
7.810593
9.403825
##ZVALUE=220
63.214898
64.423680
60.768723
52.541494
42.282939
32.444000
25.271773
22.501945
20.686984
21.489859
21.869540
22.424459
18.458962
16.189814
13.368726
11.107922
7.257462
5.703568
5.091429
3.966689
3.903508
4.274845
4.802942
6.310940
9.271502
14.098883
20.159483
28.944612
37.996769
47.976971
57.731867
69.332719
72.997808
80.509782
82.843900
86.683631
85.268617
83.525777
81.631541
77.800751
75.015426
71.680546
66.359639
61.482787
56.939721
54.077506
49.532652
46.153665
42.298436
38.287640
35.104752
32.447577
28.734803
28.325915
25.112629
24.162531
22.552609
20.216703
20.565987
17.493963
18.013716
15.382767
15.118718
15.358925
14.175773
14.474988
13.963580
14.375448
13.509989
16.474724
16.178489
17.895699
18.659830
18.715858
17.130971
18.033981
16.740561
15.623569
14.668703
14.993548
12.250543
12.573600
10.580420
9.773970
9.436607
9.027719
8.913875
8.182526
8.733869
8.565784
8.164644
7.868409
7.431507
7.868409
7.778406
7.201433
##ZVALUE=225
100.624561
102.849603
123.319626
134.003758
131.960511
117.190480
102.073550
75.001717
58.500767
46.871901
39.643645
38.860440
40.010810
43.358803
40.364861
35.562515
27.187467
21.766424
16.542673
9.729862
6.397963
4.430413
4.948974
5.477667
9.102821
13.569593
19.215941
28.146505
37.985444
47.401786
60.012937
68.248510
79.272985
85.028410
88.053942
91.570616
90.759993
88.150501
87.702870
86.676478
81.603527
77.735782
71.522593
65.760612
62.531829
57.598948
52.601695
48.215985
45.269728
42.575598
37.740469
36.017895
32.674670
30.681491
28.526783
25.685430
23.622513
21.459460
22.850633
20.811558
19.140840
18.541813
18.198490
17.676950
15.810728
16.020536
16.584992
16.376972
16.563535
17.282963
17.264485
17.533898
18.725991
17.822981
17.099977
17.774701
16.357899
15.305877
14.293790
14.406443
13.177991
11.672974
11.807680
11.534691
9.709597
10.907650
10.404587
9.644628
9.881854
9.745955
9.225607
9.680986
9.555817
9.089708
9.092689
9.001493
##ZVALUE=230
73.530674
78.982711
118.733644
189.469457
220.679641
252.965689
255.605578
232.398510
203.197598
161.090493
111.161470
80.369711
61.340928
62.347651
63.554645
65.329671
67.378879
61.801672
51.313639
41.442513
30.729771
18.462539
12.857914
7.713437
7.874966
10.071993
13.603568
20.379424
25.842786
34.244657
38.609505
45.805573
50.319433
56.181550
59.141517
60.655475
59.640408
62.371492
59.792995
58.420897
54.331422
53.431988
48.542619
46.695471
42.686462
38.842559
38.113594
35.346746
33.553839
30.962825
29.342771
26.760697
26.291609
24.122596
23.795962
23.353696
20.854473
20.078421
19.405484
18.495917
18.575788
17.373562
16.999841
16.369820
16.238689
16.711950
15.700459
16.484857
18.033981
17.908812
19.259453
18.636584
18.512607
18.839836
19.590855
18.151999
17.419457
17.398596
16.747713
15.359521
14.421940
14.516711
14.590621
14.717579
13.344884
13.129711
13.177991
12.922883
12.899637
12.461543
12.328625
12.264848
11.792779
10.807514
11.297464
10.894537
##ZVALUE=235
17.698407
19.704700
54.306984
99.451542
174.627900
245.635509
325.569510
374.630690
396.535993
378.706455
305.696726
245.885849
177.921653
114.876628
90.098977
77.679753
78.083873
87.082982
91.116428
89.934468
80.617666
65.823793
47.139525
34.370422
22.210479
15.503764
11.531711
11.263490
12.537837
14.859438
17.075539
20.391941
22.745728
24.633408
25.738478
26.809573
27.320981
25.868416
26.278496
27.701855
26.940703
24.656653
24.837852
22.914410
22.882819
21.882653
22.130609
20.483732
18.890500
18.374920
16.996861
18.474460
16.732812
17.713904
16.014576
16.856790
15.908480
15.632510
13.667941
14.746785
14.037490
14.480948
14.662743
14.767647
15.446544
14.169812
15.100837
16.257763
14.761686
16.837716
17.221570
16.584992
17.824769
18.200874
18.657446
18.354654
18.634796
17.505884
16.707778
14.979839
15.904903
14.883876
15.323758
14.813542
14.729500
13.795495
13.808608
13.249516
14.257431
13.375878
14.065504
13.896823
13.714433
13.799667
13.744831
13.588667
##ZVALUE=240
1.650453
1.516938
7.180572
17.700791
52.811503
96.246600
191.884637
283.016562
405.326486
469.937921
508.177876
488.217473
433.391929
329.584479
248.297453
158.028603
116.429925
88.974833
84.810853
95.766783
104.482770
108.198524
100.124478
91.358423
69.389939
55.255890
37.516952
26.838779
17.839670
14.107823
12.542605
12.547970
12.622476
13.230443
14.581680
15.714765
16.251802
15.906692
16.724467
16.623735
16.254783
16.606450
17.011762
16.258955
16.595721
16.096830
16.003847
14.952421
15.020967
14.130473
14.323592
14.428496
14.372468
13.877749
12.736917
13.898611
13.559461
12.853742
12.869835
11.945963
12.519956
12.275577
12.344718
12.846589
13.561845
12.565851
14.138818
13.630986
14.082789
14.941692
16.591549
16.845465
17.306805
17.834902
17.644763
18.030405
17.088652
16.059875
16.676784
16.787648
15.403628
15.361905
15.375614
15.594959
15.885830
15.943646
15.572906
14.976859
15.104413
14.926791
14.356971
14.556646
14.988780
14.905930
14.793873
14.739633
##ZVALUE=245
1.163483
1.206994
1.158714
1.340508
3.733635
10.447502
39.044619
83.488822
179.461837
275.023580
413.388610
503.377914
563.547015
574.696660
534.405708
429.102778
337.222815
223.135948
155.280828
99.188685
85.570812
85.775852
100.408792
110.840797
113.290548
108.490586
94.805956
79.611540
59.148669
47.032833
36.115646
25.564432
20.374656
18.316507
17.703772
18.723607
18.587708
18.945932
19.688606
19.302964
19.271970
18.938780
19.644499
18.079877
17.084479
17.161965
16.867518
16.126633
16.099811
15.261769
15.159845
14.229417
14.311671
13.555884
13.159513
12.250543
11.674762
12.262464
11.385679
11.069775
11.680722
10.922551
10.956526
11.530519
10.900497
10.665655
11.678934
12.166500
12.528896
13.242960
14.017820
14.006495
14.668703
15.680790
15.803576
14.795661
15.463829
15.285611
15.595555
14.953613
14.421940
14.350414
14.935732
14.534593
14.158487
14.624000
14.725924
14.485717
13.191700
14.209747
14.317632
13.877749
13.793707
14.738441
13.688803
14.010668
##ZVALUE=250
1.096725
1.030564
1.176596
1.212955
1.173615
1.425743
2.194643
6.214976
27.999878
60.670972
149.297714
241.335630
347.876549
490.843654
575.389862
630.242825
611.636639
530.464649
437.869430
296.641588
198.639631
133.264661
83.972812
76.137781
88.717937
104.168653
116.621852
122.873783
117.243528
107.861757
91.165900
76.055527
62.666535
44.346452
38.495660
30.418634
29.198527
27.328730
27.282834
27.928948
27.230978
26.837587
25.563836
24.210811
23.559928
22.641420
21.928549
20.705462
20.362735
19.015670
17.603636
16.825795
15.920997
15.185475
14.450550
14.124513
13.169646
13.255477
12.302995
11.662841
11.082888
11.007786
10.962486
10.549426
10.454655
10.597706
10.721684
11.442900
11.547804
12.156963
13.003945
12.936592
13.276935
13.621449
13.693571
13.896823
13.465881
13.402700
13.942719
13.549924
13.021827
12.730956
12.779832
13.190508
13.007522
13.397932
13.329983
13.039708
12.582541
13.146996
12.951493
12.803674
12.950897
12.068748
13.057590
12.861490
##ZVALUE=255
0.947714
0.844598
1.067519
0.890493
1.081824
1.064539
1.159906
1.186728
1.570582
3.221631
17.119646
42.756796
90.184808
192.902684
298.490524
461.815000
565.567017
659.198761
684.399009
633.327961
537.231565
420.919657
262.097716
167.004466
94.735622
74.905753
75.737834
90.730786
114.491582
129.649639
137.682557
139.946938
133.212805
115.835667
98.128915
77.598691
64.268708
52.165985
46.223998
41.743517
39.031506
37.464499
36.471486
34.847856
33.158660
30.272603
29.099584
27.104616
26.665926
24.159551
23.153424
21.093488
20.502806
19.160509
17.700791
15.912652
15.270710
14.477968
13.657808
12.722611
12.287498
11.796951
11.734962
11.034608
11.252761
11.081696
10.909438
10.749698
11.055470
12.245774
11.664629
11.757612
12.391806
11.888742
12.535453
12.258887
12.363791
11.959672
11.794567
12.519956
11.882782
11.782646
12.182593
11.636615
11.439919
11.938810
12.197495
11.426806
11.640787
11.528730
11.739731
11.485815
11.828542
11.843443
11.581779
11.777878
##ZVALUE=260
0.823736
0.922680
0.984669
0.963807
1.094937
0.814795
0.916719
1.189709
1.117587
1.183748
1.294613
1.972914
5.818605
26.123524
60.596466
145.023465
242.231488
400.026441
525.135994
675.704479
736.588836
734.190941
640.546679
524.340868
344.355702
237.288475
141.460896
98.974705
79.985857
90.112686
108.728409
137.574673
155.751705
168.838501
168.771744
157.018900
141.564608
118.284822
99.643469
80.045462
70.027709
57.601929
52.108765
46.587586
44.425726
40.363669
39.638877
36.444664
34.009814
30.926466
30.014515
27.183890
25.145411
22.660494
21.260977
19.977689
18.552542
17.599463
15.899539
14.942884
14.317632
13.027787
12.464523
12.239814
11.886954
11.630654
11.232495
10.666847
11.136532
11.102557
11.630654
11.516809
11.457801
11.962652
11.721849
12.187958
11.498928
11.631846
11.446476
11.002421
11.217594
11.232495
11.020899
11.569858
10.948777
11.186600
11.250973
11.386871
11.099577
11.262894
10.524988
10.950565
10.475516
10.575652
10.845661
11.287928
##ZVALUE=265
0.817776
0.954866
0.919700
1.030564
1.031756
1.075864
1.159906
1.086593
1.063943
1.163483
1.096725
1.501441
1.526475
1.695752
3.163815
16.460419
40.745735
106.603503
190.777779
355.177522
501.032472
642.941594
773.599744
798.698664
722.255707
625.718832
464.749932
337.307453
204.524398
141.317844
106.435418
99.950433
113.840699
144.556761
163.359642
184.770823
190.027952
184.678435
172.582865
150.379539
129.286647
103.084445
86.695552
68.998933
59.754848
51.862001
48.270822
43.029785
41.079521
37.147999
34.961700
31.664968
29.541850
26.995540
24.613738
22.299886
20.828843
18.838644
17.638803
16.588569
16.068816
14.396906
14.006495
13.373494
12.605786
12.435913
12.039542
11.636615
12.376904
11.574626
11.569858
11.804700
11.733770
11.802912
11.678934
11.128783
11.167526
11.371970
11.140704
11.004806
10.977983
10.917783
10.537505
10.417700
10.443926
10.474920
10.704994
10.493994
10.429621
10.525584
10.310411
10.256767
10.238886
10.488629
10.228753
10.370612
##ZVALUE=270
0.764728
0.731945
0.734925
0.708699
0.835657
0.721812
0.795722
0.953674
0.921488
0.883937
0.995994
1.071692
1.054406
0.910759
1.110435
1.300573
1.999736
5.734563
25.512576
62.605739
155.733824
266.794562
467.198491
620.341897
775.007010
838.873982
833.258033
738.542676
621.314645
450.925827
321.588516
192.761421
137.475729
108.526945
108.567476
127.639771
146.852732
170.646906
181.318521
186.489820
181.428790
164.712667
147.976875
119.474530
98.110437
74.038506
60.621500
50.127506
43.979883
38.424730
35.293698
31.958818
30.035973
26.983619
25.224686
22.778511
21.476746
19.295812
18.468499
17.162561
16.066432
15.199780
13.497472
13.354421
12.786984
12.090802
11.678934
11.438727
11.156797
11.232495
11.370778
11.716485
11.294484
11.158586
11.415482
11.073947
10.779500
10.291934
10.298491
9.667873
10.133982
10.336637
10.036826
9.983778
9.847879
9.926558
9.921789
9.485483
9.372830
9.507537
9.695888
9.544492
9.611845
9.311438
9.287000
9.287596
##ZVALUE=275
0.795722
0.486970
0.744462
0.705719
0.793934
0.704527
0.782609
0.803471
0.830889
0.866652
0.894666
0.971556
0.692606
0.850558
1.033545
1.244545
1.217723
1.169443
1.316667
3.119707
11.873841
35.842657
107.747912
205.934644
388.013721
535.449982
709.850788
818.798542
875.085592
839.471817
752.133727
576.784015
425.397754
251.091719
165.790915
100.792646
85.224509
89.187622
102.962852
125.709772
141.446590
156.786442
161.153674
157.137513
145.574808
121.537447
102.796555
77.377558
61.213970
44.746995
36.257505
29.177666
25.419593
22.613406
20.523667
18.924475
18.248558
16.918778
15.493631
14.840961
14.052987
13.103485
12.647510
11.757612
11.172891
10.671616
10.733604
10.445714
10.591745
10.561943
10.733604
10.431409
10.622740
10.069609
10.336637
9.938478
9.919405
10.004640
9.475946
9.694695
9.654760
9.500980
9.457469
9.293556
9.376407
9.313822
9.078979
9.215474
9.216666
9.018779
8.819699
8.933544
9.086728
9.156466
9.179711
8.900762
##ZVALUE=280
0.902414
0.869632
0.820756
0.829697
0.751615
0.930429
0.860691
0.968575
0.864863
1.027584
0.981688
1.185536
1.162887
1.179576
1.084805
1.280904
1.024604
1.348853
1.184940
1.400709
1.572967
1.816750
7.389784
25.420785
81.608891
154.805779
296.854973
443.625450
647.045970
779.201984
862.080455
884.225965
814.825892
637.380481
482.097864
287.174582
180.650949
92.829466
58.688521
49.415827
57.646632
76.996684
94.245672
114.810467
127.372742
135.223866
131.639838
119.313598
104.303956
80.057979
62.529445
43.540597
32.065511
22.432804
17.961860
14.303923
13.358593
11.928678
11.899471
11.151433
10.989904
10.583997
10.190606
9.987950
9.958744
9.624958
9.533763
9.275675
9.946823
9.496808
9.584427
9.701848
9.579659
9.782910
9.638667
9.647608
9.642839
9.320974
9.540915
9.558797
9.188652
9.217858
9.542704
9.544492
9.533763
9.107590
8.967519
9.345412
9.001493
9.188652
9.031892
8.903742
8.585453
8.714795
8.775592
8.590817
##ZVALUE=285
0.546575
0.532866
0.483990
0.442863
0.509620
0.562668
0.515580
0.708699
0.682473
0.736713
0.657439
0.555515
0.724792
0.824928
0.837445
0.793934
0.855923
0.917912
0.712872
1.061559
0.828505
1.017451
1.258850
1.145601
3.210902
11.723638
43.191910
93.350410
204.976797
333.989859
485.024452
690.372586
816.196799
894.297957
863.604546
728.234649
582.310557
370.144844
235.992670
114.027858
61.217546
30.829906
28.992891
42.108893
55.847764
78.886747
94.544888
111.706853
118.529797
118.361712
112.751722
94.271898
76.679587
55.278540
40.252805
24.706721
17.744899
12.179613
10.133982
8.866787
8.559823
8.569956
8.554459
8.221865
7.942915
8.105636
8.269548
8.516908
8.399487
8.908510
8.984804
8.940697
8.956790
9.114742
9.367466
9.028912
8.871555
8.671880
9.096861
8.715987
9.052753
8.870959
9.167790
9.096861
9.047985
9.003878
8.993745
8.892417
8.850694
8.558631
8.803606
8.796453
8.372664
8.506775
8.794665
8.541942
##ZVALUE=290
0.543594
0.478625
0.564456
0.527501
0.551939
0.562668
0.498891
0.722408
0.705719
0.701547
0.614524
0.579953
0.711679
0.685453
0.608563
0.886917
0.753999
0.914931
0.877976
0.814795
0.867844
1.057982
1.143813
0.980496
1.164675
1.284480
1.650453
4.678965
23.604631
57.127476
114.647746
248.880982
396.607518
619.817972
768.530965
894.096494
909.276009
812.239647
680.316687
469.645858
317.657590
163.891912
85.598826
32.595992
21.121502
24.557710
33.517480
51.162839
66.435933
88.728666
101.908445
112.523437
113.294721
104.327798
91.581941
70.387721
53.736567
35.633445
24.996996
15.367866
11.420846
8.266568
7.909536
7.577538
7.406473
7.306933
7.628798
7.810593
8.074641
8.150935
8.370876
8.534789
9.038448
8.950830
8.708835
8.866787
8.744597
8.789897
9.075999
8.524656
8.860826
9.070635
9.213686
8.971691
8.968711
9.198785
8.908510
9.008646
8.909702
8.805990
8.860826
8.819699
8.773804
8.882880
8.642673
8.659959
##ZVALUE=295
0.514984
0.550747
0.596642
0.412464
0.600815
0.675917
0.476837
0.620484
0.611544
0.553727
0.522733
0.646710
0.678897
0.564456
0.538826
0.636578
0.710487
0.627637
0.678897
0.815988
0.787973
0.719428
0.797510
0.880957
0.973940
1.021624
1.071692
1.250505
1.359582
2.114773
7.078648
33.162832
79.752803
196.931958
326.226950
537.052751
694.183707
855.466723
910.489559
867.770910
764.204860
563.098788
402.120948
219.395757
121.011734
44.980645
22.258759
15.561581
19.962788
31.166673
43.857694
64.548850
79.062581
96.836686
104.982853
105.968714
100.226998
85.414648
71.058869
50.334930
37.220716
22.386909
15.769601
10.243654
8.485913
7.067919
7.164478
7.186532
7.491708
7.639527
7.693768
7.971525
8.396506
8.289814
8.686781
8.475780
8.532405
8.756518
8.796453
8.742809
8.685589
9.165406
9.361506
9.055734
8.912683
8.885860
9.010434
8.978844
8.982420
8.608699
8.999705
8.861423
8.811951
8.808970
8.811951
8.627772
##ZVALUE=300
0.574589
0.472665
0.502467
0.580549
0.458956
0.568628
0.525713
0.471473
0.505447
0.572801
0.634789
0.562668
0.545979
0.564456
0.470877
0.506639
0.669956
0.618696
0.564456
0.577569
0.608563
0.780821
0.661612
0.777841
0.915527
0.936985
0.826716
0.783801
0.984669
0.990629
1.225471
1.359582
4.591942
16.582608
59.768558
122.161508
263.958573
408.415794
624.229908
769.362450
894.827843
915.464759
824.595690
696.840882
478.179455
320.404768
164.422989
89.290738
32.997727
15.527606
12.562871
16.823411
26.986003
38.950443
57.111979
72.093606
89.117885
98.251700
100.844502
96.382499
83.940625
69.588423
51.357746
37.825704
23.279786
16.369820
10.325909
8.302927
7.363558
7.333755
7.434487
7.700920
7.820725
7.874966
8.077621
8.268952
8.197427
8.406639
8.521676
8.610487
8.625984
8.831620
8.788705
8.904934
8.941889
9.044409
8.881688
8.996725
9.161830
8.830428
9.057522
8.852482
8.926988
8.908510
9.019971
8.792877
##ZVALUE=305
0.368953
0.236630
0.303984
0.238419
0.353456
0.242591
0.339746
0.328422
0.382662
0.345707
0.289679
0.264645
0.313520
0.510812
0.516772
0.410676
0.331998
0.436902
0.402927
0.482798
0.501871
0.585914
0.507832
0.611544
0.553727
0.435710
0.656843
0.578761
0.624657
0.891685
0.894666
0.897646
0.871420
1.264811
1.791716
10.309815
31.362772
94.987750
179.214478
343.823433
500.398874
713.322759
842.759609
920.239687
890.271664
736.847520
588.835478
384.973884
243.713856
113.048553
54.742694
18.371940
10.114908
10.944605
15.237927
25.509596
36.478639
53.439736
67.379475
83.663464
91.996789
95.170736
91.803670
79.895854
66.113472
47.920942
35.723448
22.789836
15.945435
10.280609
8.355975
7.678866
7.243752
7.355809
7.364750
7.579923
7.521510
7.935762
8.120537
8.387566
8.311868
8.491874
8.546710
8.833408
8.591413
8.917451
8.769631
9.055734
8.665919
9.009838
8.520484
8.566976
8.441806
8.657575
8.544922
8.522868
##ZVALUE=310
0.542998
0.359416
0.476837
0.458956
0.516772
0.491738
0.533462
0.498891
0.470877
0.496507
0.681877
0.436902
0.551939
0.513792
0.518560
0.566840
0.577569
0.452995
0.544786
0.623465
0.622869
0.530481
0.619888
0.556707
0.641942
0.663996
0.656843
0.731945
0.685453
0.775456
0.741482
0.830889
0.847578
1.150966
0.888705
1.019835
1.339912
4.216433
14.957786
54.481626
114.071965
250.121951
397.965908
619.794726
771.472454
908.039808
927.529931
845.478773
719.877481
500.890613
343.099833
175.647736
94.384551
32.556653
13.535619
7.647872
9.449720
13.954639
20.521879
32.750964
45.017600
62.011480
74.763894
86.442828
90.449452
87.190866
79.355836
64.845681
51.406622
35.106540
25.125742
16.620755
11.975765
9.027719
8.155704
7.651448
7.767677
7.546544
7.827878
8.146763
8.227825
8.494854
8.222461
8.591413
8.435845
8.839965
8.694530
8.725524
8.621812
8.880496
8.723736
8.823872
8.623600
8.623600
8.491874
8.346438
##ZVALUE=315
0.453591
0.507832
0.287890
0.438690
0.460744
0.522733
0.506639
0.593662
0.487566
0.470877
0.402927
0.451803
0.367761
0.531673
0.414848
0.536442
0.528693
0.685453
0.604987
0.386834
0.626445
0.707507
0.447631
0.558496
0.602603
0.722408
0.788569
0.658631
0.807643
0.690818
0.893474
0.753999
0.779629
0.868440
1.001954
1.072884
0.975728
1.415610
1.434684
2.420545
7.741451
33.144951
77.534914
185.292959
316.760540
537.474751
692.045689
856.563449
923.890471
897.524953
799.597502
601.982474
436.668992
240.254998
132.487416
48.921704
19.855499
8.144975
7.231832
9.022951
12.366772
19.971728
28.904676
42.647719
56.204796
71.975589
80.813766
85.545778
83.636642
73.512793
63.681602
48.589706
36.302805
23.583770
16.929507
11.227727
9.325743
8.261800
7.921457
7.821918
7.981658
8.149743
8.298755
8.637905
8.459687
8.459687
8.520484
8.645654
8.629560
8.636713
8.884668
8.692741
8.626580
8.530617
8.363724
8.321404
##ZVALUE=320
0.378489
0.338554
0.469685
0.314713
0.352859
0.383854
0.483990
0.347495
0.397563
0.335574
0.442863
0.482798
0.488758
0.528693
0.413656
0.533462
0.474453
0.381470
0.746846
0.622869
0.516772
0.638962
0.540614
0.517964
0.568628
0.418425
0.634789
0.617504
0.669956
0.669956
0.604987
0.614524
0.547767
0.627637
0.795722
0.823736
0.714660
0.811815
0.936985
0.887513
1.137853
1.405478
3.248453
18.330812
47.605634
132.343769
234.738588
423.886776
583.461523
779.476762
887.146592
928.081870
873.211026
701.717734
531.370640
308.956504
180.627704
77.023506
34.798980
11.050701
6.929636
6.984472
8.039474
11.622906
16.701818
26.709437
37.573576
53.466558
65.167546
76.943636
81.684589
79.437494
73.321462
59.285760
47.730803
33.124685
24.367571
16.253591
12.328625
9.555817
8.588433
8.189678
8.043647
8.327961
8.323789
8.554459
8.024573
8.359551
8.525848
8.526444
8.462667
8.398890
8.491874
8.326769
8.401871
8.422732
##ZVALUE=325
0.402927
0.454783
0.369549
0.398755
0.406504
0.418425
0.414848
0.538826
0.596642
0.405908
0.374913
0.512600
0.306964
0.419617
0.435710
0.440478
0.374913
0.472665
0.540614
0.427961
0.438690
0.504851
0.525713
0.420809
0.580549
0.495911
0.507832
0.560880
0.555515
0.593662
0.670552
0.684857
0.554919
0.765920
0.807643
0.874996
0.701547
0.867844
0.766516
0.893474
0.904799
1.042485
0.960827
1.182556
1.877546
10.953546
31.051636
88.979602
169.223547
336.798429
493.050814
704.428554
835.326910
923.209786
899.273753
754.034519
595.223904
381.683707
237.075686
108.549595
51.883459
15.688539
7.833838
6.325841
6.523728
7.933974
10.731816
16.785860
24.770498
39.137602
49.680471
62.883496
72.339773
77.188611
75.939894
66.732764
57.425499
44.080615
33.693910
22.398829
16.258955
11.537671
9.565949
8.719563
8.405447
8.410811
8.202791
8.244514
8.136630
8.101463
8.107424
8.099675
8.287430
7.886887
8.145571
8.152723
##ZVALUE=330
0.345707
0.268817
0.551939
0.542998
0.379682
0.387430
0.388622
0.435710
0.348687
0.309944
0.428557
0.362992
0.405908
0.423789
0.289679
0.454783
0.276566
0.373721
0.415444
0.496507
0.295639
0.499487
0.421405
0.475645
0.401735
0.583529
0.448823
0.572801
0.614524
0.478625
0.627637
0.423789
0.731945
0.530481
0.644922
0.584722
0.621676
0.597835
0.820756
0.608563
0.776649
0.841618
0.880957
1.009703
1.078844
1.083612
1.398921
4.610419
15.349984
57.114959
117.055774
252.162814
390.795469
607.301593
762.753487
897.676945
910.238624
816.885829
681.510568
464.314818
308.575630
149.027705
75.846910
26.394725
10.592937
6.094575
6.092787
6.349683
7.595420
11.315942
15.798807
24.531484
34.112930
48.171878
58.522820
69.149733
71.902871
70.542693
65.155625
52.634478
42.566657
29.998422
22.985935
16.277432
12.753606
9.775758
8.917451
8.329749
8.009672
7.814765
7.849932
7.908940
7.779598
7.991791
7.803440
7.828474
##ZVALUE=335
0.360608
0.368953
0.377893
0.241995
0.389814
0.341535
0.303984
0.351667
0.428557
0.389814
0.418425
0.468493
0.354648
0.525713
0.443459
0.554919
0.321865
0.441670
0.513792
0.279546
0.329614
0.449419
0.567436
0.529885
0.486970
0.562668
0.420809
0.579953
0.529885
0.529885
0.454783
0.402927
0.582933
0.643730
0.428557
0.621676
0.697970
0.564456
0.496507
0.691414
0.668764
0.644922
0.808835
0.759959
0.760555
0.932813
0.970960
1.067519
1.231432
2.135634
7.481575
33.233762
75.578690
183.385611
309.550762
522.396564
687.967539
850.770473
905.318856
862.332582
756.602883
546.489954
385.777950
209.412575
111.429691
38.190484
15.563965
6.842613
6.038547
6.014705
6.476641
7.776618
10.099411
15.942454
22.618771
34.083724
43.684840
55.611730
63.138604
67.414641
66.847801
59.843659
52.543879
41.462779
33.105612
23.102760
17.298460
12.446642
9.961724
8.611679
7.969737
7.672906
7.573962
7.820725
7.595420
7.813573
##ZVALUE=340
0.394583
0.431538
0.470877
0.314713
0.448823
0.208616
0.406504
0.308752
0.365973
0.562668
0.467896
0.313520
0.214577
0.311732
0.346899
0.458956
0.324845
0.347495
0.595450
0.338554
0.421405
0.536442
0.367761
0.471473
0.423789
0.518560
0.625849
0.433922
0.495911
0.455976
0.520945
0.475645
0.499487
0.602603
0.493526
0.490546
0.609756
0.689626
0.646710
0.607967
0.716448
0.651479
0.829697
0.618696
0.787973
0.767708
0.685453
0.922680
1.035929
1.012683
1.082420
1.347661
3.444552
19.436479
51.119924
141.556859
250.189900
437.213778
595.868826
785.597563
874.546766
879.910588
802.632570
626.592636
457.546711
251.064897
141.801834
57.006478
22.506714
7.715821
6.339550
6.092787
6.166697
6.534457
7.589459
10.577440
14.565587
22.456646
30.695796
43.310523
52.484870
60.661435
63.734651
63.000917
58.864951
49.422979
41.168928
30.492544
23.329854
16.291738
12.435913
9.483695
8.352995
7.889867
7.706881
7.587671
##ZVALUE=345
0.152588
0.191927
0.084639
0.089407
0.139475
0.191927
0.240803
0.109673
0.358820
0.158548
0.046492
0.131726
0.147820
0.077486
0.082850
-0.078678
0.106692
0.215769
0.211596
0.099540
0.230670
0.332594
0.228882
0.129938
0.214577
0.069737
0.253916
0.200868
0.180602
0.221729
0.299811
0.136495
0.284910
0.182986
0.334978
0.239611
0.312924
0.300407
0.414848
0.345707
0.284910
0.343919
0.337958
0.373721
0.463724
0.453591
0.272989
0.531673
0.582933
0.597835
0.681877
0.925660
0.764728
0.941753
1.739860
10.323524
32.259822
93.467832
178.226829
344.964862
495.120883
705.114603
821.802616
885.703564
848.983526
691.456795
535.524487
330.515504
192.386508
77.126622
34.247637
10.996461
6.592870
5.861521
5.724430
5.633831
5.849600
7.036924
9.120703
14.367700
19.857883
30.088425
37.791729
47.079921
53.464770
58.495998
58.192611
54.367781
48.419833
38.832426
30.738711
21.762848
16.433001
11.536479
9.423494
8.230805
##ZVALUE=350
0.385642
0.421405
0.416636
0.342727
0.430942
0.460744
0.365973
0.394583
0.331998
0.481606
0.611544
0.470877
0.313520
0.431538
0.454783
0.398755
0.321865
0.347495
0.405908
0.314713
0.504851
0.446439
0.511408
0.461936
0.362992
0.334978
0.358820
0.406504
0.467896
0.386834
0.395775
0.490546
0.508428
0.545979
0.451803
0.497699
0.607967
0.530481
0.492930
0.626445
0.538826
0.593662
0.726581
0.620484
0.420809
0.667572
0.571609
0.699759
0.519753
0.703931
0.787973
0.917912
0.832677
0.687838
0.961423
1.075864
1.267791
4.973412
17.450452
61.183572
124.462843
267.459750
407.029986
606.596470
751.320720
865.299702
865.851641
759.294629
610.786676
385.712981
244.008899
115.214586
52.218437
14.773607
7.152557
5.617738
5.548596
5.332828
5.338788
5.769730
6.690621
9.272695
12.575984
18.213987
24.067760
33.680797
41.166544
48.974752
52.517653
53.667426
51.527619
44.380426
37.873983
28.474927
22.006631
15.824437
##ZVALUE=355
0.274777
0.275970
0.122786
0.260472
0.213981
0.304580
0.134706
0.229478
0.144839
0.261664
0.208616
0.348687
0.272989
0.207424
0.374913
0.176430
0.241995
0.281930
0.268817
0.292659
0.379682
0.271797
0.401735
0.246763
0.314713
0.273585
0.256896
0.241995
0.335574
0.320673
0.331998
0.360608
0.431538
0.357628
0.356436
0.376701
0.396967
0.293851
0.379682
0.335574
0.457764
0.320673
0.416636
0.400543
0.561476
0.519753
0.594854
0.415444
0.421405
0.604987
0.643730
0.592470
0.669956
0.671744
0.823736
0.896454
0.851750
0.890493
1.114607
2.318621
8.789897
38.888454
85.470676
194.005966
322.740674
534.076691
684.355497
828.334689
867.434740
794.913769
666.408539
455.013514
294.801593
134.890676
66.620708
22.334456
8.721948
5.525947
5.167723
4.907846
4.913807
5.031824
5.302429
6.204844
7.466674
10.858774
14.920831
21.879673
28.234720
36.663413
43.569803
48.373938
49.713850
47.783852
44.032931
37.060976
##ZVALUE=360
0.503659
0.258684
0.445843
0.265837
0.267625
0.339746
0.330806
0.295639
0.300407
0.428557
0.300407
0.429749
0.464916
0.410676
0.412464
0.249743
0.434518
0.463724
0.398755
0.566840
0.605583
0.393987
0.364780
0.466704
0.402927
0.351667
0.388622
0.436902
0.428557
0.387430
0.519753
0.554919
0.343919
0.580549
0.305772
0.601411
0.471473
0.364780
0.479817
0.551939
0.569820
0.500679
0.662804
0.531673
0.662804
0.674725
0.672936
0.746846
0.450611
0.745654
0.730753
0.723600
0.759959
0.674725
0.617504
0.796914
0.816584
1.013875
0.959635
1.155734
1.194477
1.372695
4.556775
15.570521
57.237744
118.926764
259.453654
414.072871
643.538833
787.022710
878.904462
852.011442
721.863508
570.762753
357.733965
221.508741
98.495483
42.786002
11.780858
5.963445
4.938841
4.911423
4.771948
4.776716
4.794598
5.048513
5.540848
6.483793
9.261966
12.601614
19.220710
25.399923
33.870935
40.413737
46.972632
50.051808
##ZVALUE=365
0.392795
0.209808
0.249743
0.374913
0.375509
0.352859
0.401735
0.396967
0.305772
0.448823
0.261664
0.404716
0.330806
0.388622
0.396967
0.310540
0.402927
0.339746
0.338554
0.472665
0.421405
0.452995
0.406504
0.300407
0.432730
0.543594
0.486970
0.594854
0.421405
0.443459
0.415444
0.392795
0.418425
0.493526
0.452995
0.505447
0.483990
0.633597
0.401735
0.393987
0.580549
0.507832
0.609756
0.533462
0.517964
0.626445
0.526905
0.634789
0.544786
0.598431
0.545979
0.582933
0.576973
0.820756
0.757575
0.643730
0.791550
0.834465
0.831485
0.894666
0.826716
1.137853
1.087785
1.284480
1.995564
10.174513
29.955506
87.537766
172.427893
342.618823
488.431454
672.205687
784.935951
829.993486
771.350861
605.099797
450.062752
261.512995
145.337582
52.976608
20.713806
6.557703
4.802942
4.574656
4.459620
4.407763
4.293919
4.256964
4.270673
4.689693
5.464554
7.502437
10.475516
15.257597
20.409822
27.261972
##ZVALUE=370
0.293851
0.354648
0.289679
0.401735
0.370741
0.275970
0.371933
0.211596
0.361800
0.373721
0.436902
0.343919
0.220537
0.286698
0.337958
0.358820
0.260472
0.371933
0.400543
0.346899
0.321865
0.297427
0.451803
0.349879
0.470877
0.421405
0.386834
0.610948
0.331998
0.440478
0.259876
0.495911
0.339746
0.460744
0.558496
0.479817
0.464916
0.406504
0.519753
0.473857
0.483990
0.543594
0.390410
0.467896
0.321865
0.580549
0.334978
0.384450
0.554919
0.468493
0.464916
0.375509
0.520945
0.616908
0.551939
0.655651
0.736713
0.681877
0.717640
0.620484
0.804663
0.795722
0.813603
0.692606
0.811815
1.155734
1.471639
4.962683
17.445683
64.280629
127.525926
261.197686
404.621959
609.888434
734.886527
816.365480
793.747902
668.346882
519.313812
310.657620
181.071758
72.918534
33.198595
10.568500
5.221963
4.209876
4.179478
3.997684
3.899932
3.868937
3.865957
3.987551
4.231930
4.986525
6.314516
9.096861
##ZVALUE=375
0.298619
0.306964
0.269413
0.241995
0.329614
0.370741
0.226498
0.343919
0.463724
0.392795
0.275970
0.248551
0.235438
0.418425
0.340939
0.274777
0.350475
0.363588
0.378489
0.345707
0.342727
0.416636
0.365973
0.367761
0.229478
0.398755
0.271797
0.523925
0.352859
0.244975
0.424981
0.303984
0.238419
0.356436
0.468493
0.475645
0.463724
0.480413
0.571609
0.375509
0.532866
0.558496
0.475645
0.458956
0.399947
0.406504
0.512600
0.518560
0.444651
0.480413
0.494719
0.632405
0.515580
0.485778
0.556707
0.519753
0.609756
0.468493
0.654459
0.478625
0.578761
0.734925
0.582933
0.687838
0.747442
0.823736
0.904799
0.977516
1.163483
2.391934
8.593798
34.874678
81.586838
199.174881
324.743986
523.769855
660.262704
783.447027
804.650784
717.636943
586.716533
382.653475
252.239704
128.362775
64.469576
19.749999
7.575750
4.170537
3.693700
3.761649
3.532767
3.447533
3.466606
3.435612
3.407598
3.896952
##ZVALUE=380
0.336766
0.400543
0.296831
0.315905
0.420809
0.344515
0.365973
0.395775
0.311732
0.287890
0.438690
0.360608
0.569820
0.382662
0.425577
0.110865
0.265837
0.526905
0.321865
0.507832
0.564456
0.368953
0.392795
0.345707
0.494719
0.417829
0.477433
0.527501
0.404716
0.354648
0.541806
0.407696
0.373721
0.478625
0.402927
0.429749
0.528693
0.400543
0.578761
0.557899
0.469685
0.431538
0.501871
0.316501
0.548959
0.537634
0.549555
0.594854
0.529885
0.535846
0.484586
0.617504
0.483990
0.593662
0.586510
0.483990
0.598431
0.634789
0.612736
0.568628
0.587702
0.554919
0.698566
0.707507
0.724792
0.781417
0.722408
0.876784
0.981688
1.193881
1.267791
1.667738
4.558563
23.356676
59.164762
152.568817
260.467529
438.234806
588.798523
744.274855
796.911716
748.332739
648.986697
481.160879
339.154005
176.013708
93.891621
32.243729
12.739897
4.683733
3.628731
3.467798
3.446937
3.259778
3.223419
3.133416
##ZVALUE=385
0.185966
0.286698
0.171661
0.318885
0.328422
0.317693
0.214577
0.175834
0.293851
0.281930
0.289679
0.295639
0.248551
0.115633
0.259876
0.312924
0.280738
0.216961
0.314713
0.200868
0.258684
0.374913
0.305772
0.306964
0.266433
0.325441
0.372529
0.339746
0.384450
0.357628
0.411868
0.438690
0.434518
0.561476
0.488758
0.416636
0.406504
0.427961
0.442863
0.593662
0.515580
0.441670
0.276566
0.508428
0.452995
0.346899
0.413656
0.549555
0.427961
0.603795
0.432730
0.358820
0.547767
0.364780
0.472665
0.571609
0.617504
0.337958
0.498891
0.499487
0.361800
0.503659
0.553727
0.532866
0.692606
0.611544
0.701547
0.721812
0.858903
0.960827
0.880957
0.794530
0.943542
1.206994
2.049804
12.241602
34.976006
97.769499
187.330842
358.713865
508.767962
683.341026
761.528015
780.847669
728.422999
577.330589
432.271957
252.322555
149.020553
61.916709
24.962425
6.472468
3.700852
3.014803
3.155470
3.123879
##ZVALUE=390
0.315905
0.331998
0.224710
0.408888
0.335574
0.122786
0.209808
0.360608
0.362992
0.078678
0.294447
0.237823
0.149608
0.318885
0.304580
0.263453
0.322461
0.372529
0.233650
0.290871
0.218749
0.478625
0.278950
0.311732
0.281930
0.341535
0.431538
0.327826
0.312924
0.503659
0.607967
0.701547
0.614524
0.681877
0.545979
0.591874
0.677705
0.434518
0.574589
0.485778
0.496507
0.544786
0.593662
0.423789
0.489950
0.455976
0.657439
0.485778
0.391603
0.439882
0.411868
0.510812
0.416636
0.483990
0.387430
0.324845
0.526905
0.467896
0.386834
0.370741
0.526905
0.481606
0.597835
0.547767
0.463724
0.671744
0.595450
0.745654
0.782609
0.977516
1.118779
0.821948
0.872612
0.894666
0.931621
1.024604
1.292825
5.811453
20.742416
71.784854
145.882964
297.337770
428.872705
599.972606
712.468624
792.595744
776.634812
662.891865
532.229543
344.820619
211.538672
90.588927
40.973425
10.617971
4.386902
3.124475
##ZVALUE=395
0.374913
0.273585
0.245571
0.309944
0.269413
0.258684
0.261664
0.267625
0.278950
0.304580
0.233650
0.283718
0.387430
0.308752
0.357628
0.368953
0.336766
0.280738
0.306964
0.344515
0.264645
0.467896
0.273585
0.206828
0.356436
0.417829
0.518560
0.391603
0.545979
0.615716
0.660419
0.523925
0.677705
0.715852
0.613928
0.749826
0.600815
0.575781
0.654459
0.805855
0.649691
0.678897
0.660419
0.636578
0.540614
0.705719
0.567436
0.643730
0.436902
0.493526
0.459552
0.401735
0.522733
0.654459
0.411868
0.469685
0.364780
0.559688
0.397563
0.426769
0.466704
0.556707
0.512600
0.573993
0.655651
0.649691
0.547767
0.716448
0.631809
0.749826
0.856519
0.772476
0.766516
0.778437
0.777841
0.764728
0.846982
0.920892
1.048446
3.119707
12.578964
49.508810
101.478696
209.211707
330.005884
521.606803
657.024980
777.835846
804.183483
734.465718
612.073541
411.409736
271.139741
126.072764
62.281489
19.878745
##ZVALUE=400
0.274777
0.213981
0.210404
0.339746
0.293851
0.150800
0.194907
0.337958
0.225902
0.183582
0.386834
0.333786
0.048876
0.238419
0.421405
0.351667
0.402927
0.307560
0.129938
0.250936
0.282526
0.375509
0.294447
0.235438
0.233650
0.360608
0.487566
0.487566
0.499487
0.692606
0.678897
0.826716
0.686646
0.696778
0.829697
0.824928
0.696778
0.719428
0.650883
0.703931
0.728965
0.664592
0.659823
0.731945
0.657439
0.548959
0.590682
0.548959
0.538826
0.610948
0.511408
0.535846
0.356436
0.387430
0.513792
0.482798
0.425577
0.486970
0.544786
0.528693
0.484586
0.620484
0.470877
0.467896
0.563860
0.590682
0.744462
0.732541
0.699759
0.754595
0.841618
0.852942
0.796914
0.669956
0.645518
0.647902
0.694990
0.737906
0.754595
0.959635
0.954866
1.473427
6.838441
21.250844
69.143772
135.267973
274.314880
404.843688
590.982437
702.085495
774.295926
757.023692
635.559559
500.074625
309.581757
196.141601
##END
