##TITLE=FKDZ0151
##FORMAT=SPECTACLE-ASCII V-1.2
##DATA TYPE=ULTRAVIOLET SPECTRUM
##SECOND TYPE=ULTRAVIOLET SPECTRUM
##DATE=05/24/18
##TIME=18:54:24
##SPECTROMETER/DATA SYSTEM=SPECTACLE
##XUNITS=NM EM
##YUNITS=ENERGY
##YFACTOR=1
##FIRSTX=220
##LASTX=410
##NPOINTS=96
##3DDATA=Equidistant
##ZUNITS=NM EX
##FIRSTZ=210
##LASTZ=400
##ZPOINTS=39
##XYDATA=(Y..Y)
##ZVALUE=210
5.704761
5.278587
5.633831
4.747510
4.926920
5.486608
5.881786
4.557967
3.991723
3.478527
3.137589
3.317595
2.733469
3.204942
3.852844
4.475713
4.124641
4.356503
4.173517
5.146861
4.737973
5.561709
5.094409
6.144643
6.320477
8.244514
9.323955
11.441708
12.894869
14.635921
16.599894
19.397736
19.495487
19.880533
20.925999
19.114614
21.308661
20.669699
20.337701
18.792748
18.664598
18.444657
18.266439
16.827583
15.789866
15.242696
14.505982
13.941526
14.909506
11.536479
12.330413
13.628602
11.215806
11.308789
10.228753
10.611415
10.863543
9.858608
8.939505
9.685755
9.323955
9.134412
9.093881
9.523630
8.955598
11.440516
11.288524
13.752580
16.019940
18.656850
20.049810
21.967888
22.678971
22.918582
26.345849
24.477839
23.996830
21.521449
20.523667
18.319488
15.548468
12.214780
12.283921
10.179877
9.703636
8.476973
7.989407
7.905960
7.418990
9.069443
7.840991
9.493828
10.682940
12.516975
14.071465
14.723539
##ZVALUE=215
25.741458
23.644567
20.884871
14.427900
12.866855
10.807514
10.858774
11.776686
11.593699
10.855794
9.396672
7.971525
7.493496
6.250739
4.068613
4.097819
4.109740
4.114509
4.250407
4.514456
4.476905
4.183650
5.033612
6.033778
6.675720
9.279847
11.442900
15.450716
18.168688
23.142695
26.473999
29.281974
33.099651
34.459829
34.405589
34.275651
32.980442
33.167601
31.129718
31.413436
30.530691
27.988553
25.758743
25.377870
23.292899
20.446777
20.629764
19.332767
18.713474
17.353892
15.272498
14.713407
14.205575
13.146996
12.546778
13.551712
10.996461
11.168718
11.858940
9.592772
10.865927
9.582639
10.350943
9.183884
9.789467
12.019873
10.174513
11.946559
14.751554
14.789701
19.240975
19.346476
19.525886
20.729899
21.277666
20.532608
19.045472
18.996596
17.533898
13.935566
13.168454
11.704564
10.367632
9.402633
8.412600
8.066893
7.458925
7.324815
7.751584
6.522536
7.241964
6.392598
6.699562
7.293820
8.276701
7.839799
##ZVALUE=220
89.832544
85.942745
83.898902
70.790648
55.627823
40.384531
32.207966
24.486780
21.881461
22.538900
22.957921
22.134781
19.042492
17.490983
14.864802
10.537505
7.451773
5.982518
5.276799
4.159808
4.311800
4.140735
5.024672
6.589890
7.693768
11.484623
13.936758
20.592809
27.425885
32.485723
38.457513
44.472814
46.568513
52.399635
53.541660
53.264499
50.876737
50.816536
48.840642
45.995712
45.308471
40.815473
39.709806
37.133694
33.245683
29.780865
28.296709
25.890470
23.701787
21.371841
21.237731
20.944476
18.326640
18.158555
16.625524
13.842583
13.329983
13.309717
13.391972
12.663603
11.970997
11.457801
10.606647
10.350943
10.547638
11.756420
12.367964
11.811852
12.922883
14.157891
16.637444
17.410517
18.205643
17.869473
18.824935
17.006993
15.891790
16.315579
14.704466
14.528632
12.807846
11.823773
10.534525
9.344816
7.231832
8.455515
7.217526
6.511807
7.323623
7.297993
6.770492
6.788969
5.552769
6.855726
7.337928
7.326603
##ZVALUE=225
134.149790
139.902830
163.257718
179.367661
172.179937
153.266788
125.845671
91.640949
68.639517
53.709745
41.424632
39.166808
42.018890
41.548610
39.315820
35.836697
27.863979
21.012425
14.869571
10.395646
7.296801
5.008578
5.001426
5.644560
8.318424
12.051463
15.655756
22.710562
28.896928
34.897923
41.748881
46.577454
52.373409
56.587458
55.274963
58.394670
56.813955
57.702661
54.444671
52.701831
49.022436
44.756532
42.948723
40.164590
36.768913
34.284592
30.602813
26.975870
26.305914
24.429560
22.684932
20.710826
19.293427
17.849803
16.900897
15.811920
14.130473
13.235807
14.689565
12.266636
12.531877
11.634827
12.005568
10.041595
10.966659
10.579824
11.676550
11.374950
12.350678
12.977719
13.929605
15.779734
15.262961
14.709830
16.207695
16.154647
14.612675
14.144778
11.495948
11.160970
10.629892
9.726882
9.010434
8.979440
8.377433
8.304715
7.442832
7.558465
7.731915
7.013679
7.533431
6.807446
7.767677
7.593632
7.328987
6.472468
##ZVALUE=230
84.156990
95.646977
148.945451
223.710537
270.099640
310.042500
309.857726
282.639861
236.041546
189.128518
121.415854
85.584521
64.291954
62.571764
63.657761
70.197582
68.476796
62.352419
55.155754
40.452480
30.505657
18.659830
13.025999
9.248853
8.145571
10.284781
12.902617
18.038750
21.258593
25.632977
30.867457
34.168959
38.452744
41.492581
42.020679
40.809512
43.721795
41.852593
40.619969
38.115978
38.438439
34.364462
33.520460
30.832887
29.261708
24.976730
25.435686
23.959875
21.157861
19.668937
19.742846
17.872453
17.108917
15.534759
14.951825
14.144778
13.651848
12.814999
11.786819
11.693835
12.451410
11.096597
11.770725
11.020899
11.522770
11.317730
11.163950
11.129975
12.376904
13.036728
15.001893
14.843941
14.120936
14.823675
14.963746
15.317798
13.596416
13.109446
12.295842
11.712909
9.883642
9.984970
9.440780
9.975433
9.429455
8.820891
8.179545
8.660555
9.050965
7.875562
7.312894
8.589625
7.843971
8.213520
7.707477
8.116961
##ZVALUE=235
19.221902
23.449659
50.360560
118.136406
193.223953
289.950967
370.976925
439.896584
459.025502
440.758467
366.839767
287.822485
184.947848
133.761764
93.715787
82.227588
80.647469
88.172555
91.660619
90.894699
81.318617
63.654780
48.834682
33.905506
24.214983
16.266704
12.182593
11.847615
12.940764
14.804602
16.780496
18.644929
20.190477
22.207499
22.093654
23.489594
23.426414
22.645593
23.803711
21.635890
21.998882
22.247434
20.978451
18.978715
18.414855
17.600656
16.467571
16.184449
15.860796
15.126467
14.454722
14.012456
13.445616
12.917519
11.678934
11.434555
11.868477
11.811852
11.428595
11.661649
11.000633
10.992885
10.681748
10.843873
11.301637
10.868907
11.701584
12.229681
12.802482
12.669563
13.492703
14.873743
15.187860
15.843511
15.813708
14.519691
14.449954
13.803840
13.090968
12.616515
11.924505
11.587739
11.319518
10.469556
10.073781
9.937882
9.028912
10.352731
9.511709
9.510517
9.646416
8.931756
8.379817
8.558631
8.218884
9.302497
##ZVALUE=240
1.563430
1.887679
7.263422
18.611550
54.214597
103.157759
208.115578
311.175585
451.024771
532.373786
583.099723
567.470789
505.293012
386.141539
287.602544
174.220800
127.948523
94.564557
86.760521
96.765757
104.627609
108.634830
102.561712
91.645718
69.513917
55.495501
38.998723
28.172731
17.796755
13.051629
11.952519
10.968447
10.968447
12.685657
13.522506
12.533665
13.993979
15.094876
15.559793
14.867783
15.239716
15.487671
14.998913
15.046000
14.401674
14.122725
13.933778
13.981462
13.308525
12.516975
12.718439
11.751652
11.504889
11.436939
12.361407
10.303855
10.733604
9.996891
9.815693
10.657907
9.911656
10.026693
9.853840
9.638667
10.215640
10.366440
10.837913
11.262894
11.917949
12.090802
13.697743
14.544725
15.329719
14.934540
15.303493
15.033484
14.249682
13.364553
13.022423
12.193918
11.230707
11.412501
11.348724
10.282993
10.437965
10.273457
10.325909
10.288954
9.923577
10.091662
9.722710
9.597540
9.396672
9.024739
9.673834
9.194613
##ZVALUE=245
1.222491
1.231432
1.176000
1.322627
3.777742
12.360811
41.247606
83.966851
194.934607
300.978422
470.432639
578.376651
662.207007
683.440566
633.441806
511.595011
401.895642
254.812837
172.569752
105.801821
88.772774
87.804794
102.064610
110.541582
114.711523
109.166503
94.110966
78.978539
58.690906
45.386553
33.674836
21.646619
16.921759
13.332963
13.316870
13.919473
14.714599
15.122890
15.274882
15.465617
15.200973
15.975833
15.092492
15.610456
15.827417
15.231967
14.992952
14.390945
13.512969
13.480783
13.109446
12.581944
12.091994
11.364818
10.950565
10.689497
10.625720
10.422468
9.445548
9.378791
9.431839
9.054542
8.691549
9.255409
9.112954
9.512901
9.410977
10.232925
10.566711
11.779666
12.705922
13.596416
13.426542
14.109612
14.597774
13.617873
12.806654
12.835860
12.289882
10.994673
11.010766
10.566711
10.162592
10.163784
9.911656
9.916425
9.400845
9.448528
9.542704
9.584427
9.782910
9.747744
9.275675
8.779764
8.971691
9.388924
##ZVALUE=250
0.997782
0.886917
0.899434
0.856519
1.193881
1.382828
2.032518
6.711483
30.459762
69.188476
173.131824
293.038487
432.646871
627.779961
753.819942
843.163729
819.568634
702.645779
564.113855
359.750986
227.413774
142.211914
87.669492
78.613758
90.548992
102.977753
117.607713
119.879842
115.902424
106.397867
93.827844
70.496798
56.174994
37.257671
29.609799
22.241473
19.935966
18.735528
18.736720
18.942952
18.586516
18.700957
18.698573
18.467903
17.555952
17.398596
17.499924
16.088486
15.966892
14.506578
13.830662
13.570786
12.886524
11.930466
11.290908
10.536909
10.461807
9.751916
9.250641
9.277463
8.802414
9.134412
8.567572
8.292794
7.977486
8.743405
9.496808
9.573698
10.851622
11.159778
11.780858
12.139678
12.304783
13.362765
12.389421
12.215972
12.185574
10.842681
11.036992
10.786653
10.533929
10.010600
9.537935
9.116530
9.153485
9.061694
9.321570
9.216666
8.997917
8.409619
8.890629
8.906722
8.892417
8.700490
9.341836
9.194613
##ZVALUE=255
0.936985
0.944734
0.926852
1.199841
0.943542
1.195669
1.321435
1.338720
1.778603
3.675818
18.194914
47.434568
104.727745
243.694782
396.279693
634.566545
806.695819
977.726579
1015.720963
929.010510
780.427456
585.487485
331.408978
196.479559
101.947784
76.951981
74.861646
86.938739
110.162497
123.987794
130.661726
130.904913
121.577978
100.680590
84.221959
62.703490
48.645735
36.446452
30.741692
25.864840
24.164915
23.653507
23.238659
22.175908
21.712780
20.172000
18.694997
18.321872
18.228889
16.622543
15.533566
14.713407
14.136434
12.881756
12.546778
11.440516
10.902882
10.182858
10.000467
9.148717
8.853674
8.648634
8.937716
7.814765
8.072853
8.686781
8.558631
9.478927
9.775758
10.029674
10.841489
11.205673
11.378527
11.358857
11.414886
10.846853
10.817647
10.339618
10.024905
9.498000
8.663535
8.805990
8.534789
8.501410
8.433461
8.439422
8.331537
7.979870
8.388758
8.600950
7.861853
8.155704
8.126497
8.517504
8.498430
8.383989
##ZVALUE=260
0.921488
0.795722
0.894666
0.973940
0.886917
1.033545
1.055598
0.961423
1.044869
1.391768
1.217723
1.877546
6.307960
28.035641
66.203475
174.722672
313.092470
564.693809
781.403780
1015.702486
1015.702486
1015.702486
1015.428901
826.689005
505.747795
316.057801
165.279508
100.955963
72.582960
78.291893
93.348622
120.405555
135.238767
144.845843
144.179463
130.737424
115.440488
91.664791
73.862672
54.850578
44.031739
35.219789
31.094551
27.668476
25.126934
23.993850
22.473931
21.718740
20.491481
19.188523
18.019676
16.333461
15.386939
13.636947
13.238788
12.149811
11.604428
10.931492
9.991527
9.694695
9.283423
8.732677
8.045435
8.192658
8.080602
7.829666
7.703900
8.214712
8.547902
9.360909
9.255409
9.586811
10.092854
9.824634
9.581447
9.248853
9.295940
8.776784
8.106828
7.260442
7.742643
7.166862
7.167459
7.722974
7.031560
7.231832
7.251501
7.370710
7.402897
7.197857
6.830692
7.028580
7.094741
7.296801
7.632971
7.322431
##ZVALUE=265
0.695586
0.696778
0.652671
0.581741
0.636578
0.793934
0.787973
0.932813
1.067519
0.946522
0.903606
1.307726
1.479983
1.620650
3.373623
17.513633
44.638515
116.200447
206.919909
397.048593
562.720895
724.017620
903.291702
953.702927
868.331790
738.452673
538.829565
372.468829
207.421780
132.412910
84.596872
76.033473
86.596608
113.591552
132.821798
150.416493
155.840516
148.967505
138.221979
115.477443
96.899867
72.495937
57.113767
41.137934
33.350587
26.862621
24.371743
22.249818
20.781755
18.721819
17.896891
16.694665
15.734434
14.407635
13.423562
12.121797
11.667609
10.678768
9.674430
8.915663
8.988976
8.161664
7.714629
7.461905
7.562637
7.193685
7.159710
7.327795
7.571578
7.956624
7.854700
8.322597
8.248687
7.744431
7.499456
7.216930
7.284880
6.938577
6.643534
6.431937
6.568432
6.322861
5.992651
5.950928
6.076694
6.415844
6.226897
5.845428
6.262660
6.245971
5.946755
5.957484
6.045699
5.944967
5.832911
5.825758
##ZVALUE=270
0.602603
0.781417
0.722408
0.602603
0.730753
0.672936
0.580549
0.855923
0.696778
0.697970
0.913739
1.032948
0.825524
1.085997
1.208782
1.127720
1.620650
6.737709
21.597743
74.301958
149.141550
262.906551
467.758775
633.210540
816.391706
890.622735
880.673528
803.847909
636.270642
479.638577
336.373448
187.751651
118.410587
75.841546
73.576570
91.191530
108.515620
130.815506
143.913627
150.294900
147.705674
132.041574
115.840435
90.362430
69.778562
48.470497
36.812425
28.223991
23.060441
18.956661
17.293692
15.823841
14.377832
13.693571
12.376904
11.708736
10.718703
10.028481
9.557605
8.865595
8.485913
7.925630
7.379651
7.153749
6.861687
6.381869
6.366968
6.721616
6.370544
7.012486
6.901622
6.907582
7.083416
7.019639
6.932616
6.637573
6.729960
5.806684
5.947948
5.892515
5.587935
5.600452
5.624890
5.508661
5.514622
5.487800
5.500913
5.162954
5.612969
5.247593
5.240440
5.465746
4.994869
5.135536
5.437732
5.179644
##ZVALUE=275
0.615716
0.587702
0.505447
0.535846
0.515580
0.547767
0.476837
0.718832
0.844598
0.679493
0.782609
0.595450
0.629425
0.771880
0.858903
0.953674
0.970960
1.186728
1.402497
2.949834
12.008548
36.954880
111.767650
211.611986
401.839614
555.392504
744.275451
864.320993
921.889544
885.446668
792.758465
593.206882
429.520607
239.033699
144.942999
75.868964
56.681633
60.435534
74.499846
97.515583
113.497972
129.249692
136.405826
133.599639
122.884512
100.444555
82.198977
59.689879
44.402480
29.002428
21.195412
15.208721
12.673736
11.020899
10.520816
9.283423
9.087920
8.173585
8.107424
7.470846
7.296801
6.939769
6.681681
6.509423
6.386638
6.046891
5.937815
5.927682
6.030798
6.189942
6.402731
6.537437
6.397963
6.576777
6.392598
6.375909
5.899668
5.834699
5.476475
5.441904
5.348921
5.455613
5.303621
5.254745
5.149841
5.215406
5.147457
5.107522
5.172491
5.065799
4.954934
5.209446
4.999638
4.961491
4.934669
4.674792
##ZVALUE=280
0.611544
0.461936
0.502467
0.491738
0.621676
0.514984
0.502467
0.441670
0.637770
0.673532
0.734925
0.551939
0.425577
0.770688
0.755787
0.908971
0.851750
1.038909
1.104474
0.954866
1.062751
1.397729
7.130504
25.854707
85.528493
159.942508
310.130715
461.906791
678.086877
814.201832
857.377648
926.466584
854.408741
661.298037
496.670008
290.667415
175.526738
82.714558
47.283769
36.536455
43.889880
63.223839
80.431700
103.282928
114.619732
122.574568
120.748878
109.807849
94.382763
71.979761
53.693652
35.338998
24.301410
14.717579
10.731816
8.092523
7.132888
6.330609
6.049871
6.067753
6.216764
5.671978
5.477667
5.649924
5.840659
5.636811
5.597472
5.601645
5.968809
5.844831
6.078482
6.092787
6.298423
5.868673
5.834699
5.801916
5.800724
5.226731
5.582571
5.222559
5.354881
5.390644
4.822612
5.007982
4.982948
4.833937
4.813671
4.748702
4.949570
4.913807
4.753470
4.751682
4.612803
4.560947
4.675984
4.742742
##ZVALUE=285
0.467896
0.472665
0.565648
0.566840
0.410676
0.423789
0.521541
0.560880
0.530481
0.588894
0.678897
0.583529
0.629425
0.712872
0.697970
0.706911
0.758767
0.766516
0.712872
1.006722
0.878572
0.894666
1.102686
1.264811
3.444552
12.207627
45.111775
95.660686
213.560462
346.807837
502.738953
722.779036
856.141448
941.939950
911.296606
763.273835
606.189966
388.138890
246.551633
118.261576
61.333776
28.204918
24.536848
36.895871
51.239729
73.873997
89.207888
105.702877
113.675594
114.274621
105.987787
90.206861
73.503852
50.626993
36.183596
21.187663
13.821721
8.790493
6.576777
5.490780
5.409718
4.935861
5.164742
4.978776
5.002618
5.285740
5.148649
5.203485
5.630851
5.565882
5.649924
5.862713
5.669594
5.963445
5.590916
5.498528
5.304813
5.366802
5.205870
5.078912
4.914999
4.910827
5.041957
5.089641
4.861951
5.068779
4.691482
4.779696
4.745722
4.757643
4.740953
4.525781
4.576445
4.333854
4.625916
4.438758
##ZVALUE=290
0.438690
0.364780
0.493526
0.467896
0.506639
0.608563
0.407696
0.449419
0.561476
0.567436
0.538826
0.692606
0.617504
0.534654
0.715852
0.490546
0.709891
0.658631
0.761747
0.787973
0.825524
0.916719
1.033545
0.953674
1.109838
1.200438
1.664758
4.861951
24.317503
58.791637
144.825578
258.051753
409.230590
643.581748
798.940659
932.637453
948.488712
848.048925
708.815455
491.415858
329.256654
169.688463
87.338686
31.798482
18.920898
22.535920
31.412840
47.997832
63.845515
85.282922
98.704696
109.407902
110.581517
103.326440
89.989901
68.790913
52.367449
32.788515
23.136735
13.087988
8.936524
6.305575
5.264878
5.082488
4.845858
5.090833
5.130768
5.267859
5.291700
5.645752
5.753636
5.751848
5.831718
5.806684
5.606413
5.317926
5.329847
5.105734
5.116463
5.106926
5.349517
5.296469
4.759431
5.004406
4.823804
4.871488
4.844666
4.706979
4.715919
4.653931
4.525781
4.686713
4.467964
4.416704
4.567504
4.314780
##ZVALUE=295
0.383854
0.425577
0.451803
0.383854
0.427961
0.643730
0.598431
0.597835
0.458956
0.443459
0.408888
0.387430
0.563860
0.516772
0.533462
0.470877
0.633597
0.565648
0.662804
0.682473
0.776649
0.584722
0.723600
0.698566
0.872612
0.952482
1.012683
1.205802
1.406670
2.055764
10.869503
32.846928
98.214746
187.530518
364.032984
527.255535
743.597746
874.407887
952.567458
920.511484
774.710774
616.317987
392.701626
249.810815
114.192963
54.764748
20.920634
14.457703
19.227862
28.001666
44.577718
58.873892
79.427958
93.072653
104.172826
104.825497
97.587705
86.675882
66.673756
52.405000
34.233928
23.194551
13.326406
8.927584
5.852580
5.090833
4.867911
4.705787
5.010962
5.447865
5.306602
5.321503
5.367994
5.275607
5.411506
5.306602
5.213618
5.145669
5.116463
5.053878
4.949570
4.736781
4.912615
4.990697
4.680753
4.641414
4.820824
4.656911
4.337430
4.638433
4.305840
4.396439
4.210472
4.329681
4.487634
4.248619
##ZVALUE=300
0.371933
0.372529
0.395775
0.403523
0.435710
0.502467
0.564456
0.361800
0.382662
0.443459
0.425577
0.474453
0.322461
0.390410
0.571609
0.389814
0.583529
0.591874
0.480413
0.436902
0.625849
0.624657
0.584722
0.672936
0.742674
0.721812
0.827909
0.895858
0.803471
1.012683
1.067519
1.475811
4.718900
17.034411
62.490702
126.113892
269.559622
422.084928
644.276738
795.574784
929.777026
950.160027
858.950615
724.692941
495.755672
333.774686
172.025561
92.827678
33.399463
15.089512
12.200475
16.086698
26.280880
36.957860
55.543780
70.508718
89.153647
97.286701
100.624561
96.199512
83.029866
69.432855
50.122738
36.662817
22.068620
14.771819
8.897781
6.557703
5.157590
5.069971
5.077720
4.965663
4.971623
5.203485
4.940629
5.003810
5.011559
4.569888
4.653931
4.866719
4.651546
4.858971
4.642606
4.563928
4.643798
4.735589
4.520416
4.389882
4.354715
4.343987
4.139543
4.319549
4.186630
4.407763
4.163980
4.307628
##ZVALUE=305
0.426769
0.400543
0.395775
0.271797
0.304580
0.333786
0.414848
0.352859
0.391603
0.451803
0.487566
0.381470
0.405908
0.348687
0.579953
0.327826
0.430942
0.489950
0.495911
0.428557
0.618696
0.638962
0.484586
0.524521
0.502467
0.773668
0.610948
0.839829
0.806451
0.854731
0.870824
0.906587
1.039505
1.249909
2.356768
8.529425
38.308501
88.042617
204.755664
331.473947
545.501709
712.234974
888.382792
957.060456
914.239883
802.124739
596.326590
431.922674
240.082741
131.719708
49.544573
21.397471
9.668469
10.067821
15.013814
22.621751
37.469864
50.092936
68.370700
80.754757
92.124939
94.814897
90.386868
81.015825
63.414574
49.878955
33.834577
22.378564
12.991428
9.014606
5.971789
5.045533
5.038977
4.609823
4.598498
4.572868
4.301667
4.288554
4.461408
4.274845
4.450679
4.482865
4.445910
4.428625
4.445910
4.234910
4.120469
4.190803
4.269481
4.151464
4.244447
4.301667
4.263520
3.928542
3.939867
4.113913
##ZVALUE=310
0.212789
0.299811
0.411868
0.249743
0.341535
0.400543
0.296831
0.406504
0.348687
0.225902
0.306964
0.499487
0.355840
0.338554
0.350475
0.493526
0.339746
0.542998
0.419617
0.523925
0.393987
0.434518
0.783801
0.499487
0.610948
0.597835
0.618696
0.774860
0.685453
0.751615
0.605583
0.621676
0.766516
0.932813
0.994802
1.210570
1.435876
4.126430
15.620589
56.880713
116.327405
254.674554
402.274728
626.421571
795.172453
943.197608
966.856480
882.112980
749.352574
524.255633
357.641578
184.366703
98.525882
34.299493
13.949871
7.634759
9.038448
13.453960
19.589663
31.484962
43.818951
62.070489
73.777437
85.009933
89.543462
85.795522
77.962875
63.347816
50.257444
33.353567
23.025870
14.272928
9.643435
6.392598
5.232692
4.429817
4.287958
4.305840
4.245639
4.257560
4.284978
4.119873
4.016757
4.231930
4.148483
4.104972
4.112720
4.292727
4.160404
4.130602
4.030466
4.078746
4.151464
4.044771
3.726482
3.838539
##ZVALUE=315
0.413656
0.303984
0.344515
0.151992
0.460744
0.346899
0.266433
0.371933
0.557899
0.414848
0.338554
0.336766
0.448823
0.354648
0.298619
0.468493
0.440478
0.431538
0.285506
0.535846
0.464916
0.589490
0.547767
0.551939
0.487566
0.448823
0.549555
0.602603
0.618696
0.630617
0.753999
0.676513
0.599623
0.717640
0.818968
0.833869
0.981688
0.968575
1.126528
2.142787
7.360578
33.183694
80.293417
195.697546
323.919654
545.794964
712.522864
892.075896
961.956978
937.806964
834.681988
626.513958
458.402634
253.794789
140.960813
51.020980
19.828677
7.661581
6.707907
8.311868
11.242628
19.132495
27.548671
41.179657
54.152608
70.350766
78.794956
84.302425
82.168579
72.154999
62.546730
46.691895
34.490824
21.007657
13.936758
8.422732
6.404519
4.520416
4.300475
4.482865
4.195571
4.224777
3.909469
4.197955
3.891587
3.996491
4.399419
4.161596
4.025698
4.039407
4.059672
4.012585
3.783703
3.887415
3.896952
3.799796
##ZVALUE=320
0.163913
0.320673
0.229478
0.346899
0.318885
0.359416
0.375509
0.320673
0.396967
0.311732
0.393987
0.434518
0.294447
0.253916
0.432730
0.353456
0.460744
0.291467
0.464916
0.436902
0.375509
0.378489
0.433922
0.374913
0.458956
0.490546
0.397563
0.615716
0.472665
0.536442
0.491738
0.600815
0.735521
0.882745
0.697970
0.695586
0.780821
0.841618
0.947714
1.081824
1.048446
1.245737
3.399849
19.511580
50.740838
137.146711
238.666534
428.158641
592.522621
803.951621
919.108987
963.617563
906.633735
731.531978
553.995967
324.488878
190.331936
81.317425
35.188794
10.658503
6.580949
6.209612
7.159710
10.660887
15.003681
26.204586
36.329627
50.932765
62.991977
75.003505
78.831911
77.846646
71.575642
57.381988
45.500994
30.655861
21.388531
13.410449
8.792877
5.659461
4.766583
4.372597
4.040599
3.903508
4.010797
3.791451
3.855824
3.802776
3.818870
3.859997
3.836751
3.831983
3.865957
3.788471
3.718734
3.768802
##ZVALUE=325
0.275970
0.250936
0.236630
0.349879
0.282526
0.235438
0.240803
0.380874
0.415444
0.367761
0.028610
0.437498
0.171661
0.125766
0.426769
0.343919
0.305772
0.555515
0.375509
0.397563
0.359416
0.439882
0.371933
0.471473
0.396967
0.437498
0.517964
0.331998
0.555515
0.352859
0.477433
0.508428
0.487566
0.578761
0.741482
0.605583
0.714660
0.626445
0.617504
0.596642
0.837445
0.757575
0.874996
1.178980
1.912713
11.400580
32.037497
90.170503
170.568824
341.295600
501.675606
725.117922
860.112906
957.660675
933.638811
780.937672
618.459582
395.599008
247.448683
110.901594
51.821470
15.775561
7.404685
5.537868
5.491972
7.123947
9.473562
15.801787
23.141503
36.254525
47.773719
61.507821
69.083571
75.101852
72.656870
64.810514
54.984689
40.757656
30.477643
19.005537
12.639761
8.014441
6.013513
4.548430
4.194975
3.956556
4.025698
3.888607
3.969669
3.772974
3.728867
3.979802
3.722906
3.629923
3.743768
3.456473
##ZVALUE=330
0.166893
0.197887
0.164509
0.238419
0.220537
0.251532
0.195503
0.400543
0.230670
0.138879
0.261664
0.213981
0.327826
0.293851
0.199676
0.293851
0.409484
0.317693
0.295639
0.420809
0.462532
0.310540
0.395775
0.365973
0.392795
0.373721
0.341535
0.476837
0.330806
0.511408
0.316501
0.507832
0.471473
0.381470
0.503659
0.571609
0.529885
0.554919
0.611544
0.627637
0.684857
0.810623
0.852942
0.763535
1.031756
0.926852
1.178980
4.589558
15.713573
56.971908
117.278695
254.451632
398.087502
622.079968
784.837008
928.906798
944.740772
840.317011
700.838566
483.272672
323.810577
155.692697
79.334974
26.740432
10.365844
5.439520
5.107522
5.470514
6.375909
9.743571
14.177561
22.773743
31.746626
45.983791
56.023002
66.364408
69.879889
68.370700
62.136650
50.001740
39.935708
26.977658
19.805431
12.673736
8.999705
5.880594
4.668832
4.184842
3.902912
3.654957
3.616810
3.520846
3.583431
3.504753
3.499985
3.593564
##ZVALUE=335
0.149608
0.211596
0.350475
0.182986
0.242591
0.290871
0.213981
0.408888
0.156760
0.190735
0.303984
0.160933
0.329614
0.197887
0.469685
0.122786
0.228882
0.306964
0.352859
0.270605
0.244975
0.331998
0.500679
0.408888
0.313520
0.253916
0.347495
0.306964
0.284910
0.424981
0.357628
0.301600
0.489950
0.484586
0.418425
0.449419
0.445843
0.512600
0.549555
0.573993
0.529885
0.561476
0.640750
0.680685
0.857711
0.921488
0.800490
0.977516
1.029968
2.114773
7.894635
34.414530
77.309608
186.065435
316.627622
538.945794
707.169771
875.048637
935.717821
890.685916
780.715942
564.199686
397.970676
216.203928
117.743611
42.283535
15.745759
5.928874
5.195737
5.313754
5.174875
6.568432
8.818507
14.149547
20.644665
32.233000
41.728616
53.191781
60.572624
65.540671
63.843727
57.005882
49.400926
37.730932
29.048920
19.113421
13.634562
8.567572
6.319880
4.859567
4.031658
3.681779
3.685951
3.632903
3.406405
3.528595
##ZVALUE=340
0.142455
0.249743
0.197887
0.307560
0.422597
0.258684
0.195503
0.363588
0.326633
0.198483
0.148416
0.382662
0.238419
0.155568
0.160933
0.280738
0.378489
0.234842
0.287890
0.260472
0.171661
0.340939
0.196695
0.334978
0.307560
0.252724
0.334978
0.312924
0.300407
0.334978
0.392795
0.346899
0.311732
0.428557
0.376701
0.561476
0.418425
0.547767
0.563860
0.543594
0.511408
0.453591
0.577569
0.630617
0.589490
0.631809
0.646710
0.747442
0.813603
0.759959
1.017451
1.374483
3.498793
19.587874
52.514672
142.821670
258.204937
457.523465
619.407892
812.158585
904.058814
915.466547
831.514597
649.071932
473.518968
261.198878
147.574544
59.155822
22.978783
6.919503
5.323887
4.899502
4.920959
5.305409
6.025434
8.971691
12.558699
20.221472
28.545856
40.621758
49.544573
58.376789
60.929656
59.772730
55.762529
46.700835
38.269758
27.406812
20.250678
13.291836
8.975863
5.782843
4.599690
3.756881
3.602505
3.614426
##ZVALUE=345
0.267625
0.178814
0.073910
0.239611
0.268817
0.234842
0.221729
0.264645
0.093579
0.306964
0.306964
0.228882
0.191927
0.332594
0.271797
0.157952
0.227690
0.276566
0.242591
0.307560
0.238419
0.291467
0.337958
0.419617
0.289679
0.295639
0.285506
0.263453
0.338554
0.431538
0.299811
0.356436
0.429749
0.357628
0.334978
0.325441
0.512600
0.399947
0.392795
0.507832
0.450611
0.556707
0.435710
0.480413
0.440478
0.567436
0.589490
0.573993
0.591874
0.661612
0.692606
0.778437
0.898838
1.139641
1.822710
10.488629
32.512546
95.111728
180.911422
353.168845
511.704683
728.284717
853.282809
918.342471
878.837705
714.814663
552.683473
344.166756
200.459957
79.805851
34.894943
10.954738
6.082654
4.905462
4.801750
4.756451
4.529953
5.566478
7.478595
12.370944
17.932653
27.637482
35.475492
44.728518
50.709844
55.854917
56.181550
51.723719
45.773983
36.206841
28.220415
18.674731
13.399720
8.229613
6.056428
4.579425
##ZVALUE=350
0.138879
0.206828
0.308752
0.341535
0.333786
0.227690
0.344515
0.326633
0.168681
0.282526
0.235438
0.311732
0.080466
0.304580
0.288486
0.273585
0.226498
0.267625
0.318885
0.309944
0.149608
0.225902
0.367761
0.300407
0.303984
0.223517
0.354648
0.366569
0.345707
0.412464
0.291467
0.310540
0.498891
0.343919
0.372529
0.356436
0.333786
0.437498
0.433922
0.358820
0.296831
0.471473
0.597835
0.446439
0.404716
0.541806
0.523925
0.504851
0.538826
0.634789
0.538826
0.634789
0.657439
0.836849
0.818968
1.086593
1.170635
5.216599
18.316507
64.360499
130.260587
277.490616
423.333645
631.572604
779.247880
896.561742
894.302726
781.430006
626.306534
396.876931
251.153708
117.499828
53.150654
14.591813
6.675720
4.816651
4.423857
4.140735
4.043579
4.336834
5.113482
7.597804
10.375977
16.292930
22.155643
31.335950
38.753748
46.916604
50.186515
51.301718
48.847795
41.848421
34.800768
25.286674
18.723607
12.613535
##ZVALUE=355
0.221729
0.322461
0.303984
0.188947
0.333786
0.202656
0.246763
0.215769
0.277758
0.338554
0.276566
0.278950
0.274777
0.188947
0.331998
0.332594
0.285506
0.342727
0.229478
0.118613
0.351667
0.331998
0.330806
0.308752
0.344515
0.327826
0.403523
0.319481
0.429749
0.346899
0.391603
0.468493
0.313520
0.272989
0.346899
0.290871
0.404716
0.521541
0.425577
0.273585
0.311732
0.453591
0.443459
0.602603
0.310540
0.429749
0.488758
0.539422
0.505447
0.421405
0.531673
0.562668
0.642538
0.679493
0.577569
0.617504
0.746846
1.028776
1.191497
1.903772
11.284947
33.660531
98.545551
185.276866
360.294580
518.611670
724.108815
843.539834
895.577669
831.384659
651.078820
494.364500
292.611718
165.691972
63.527822
26.162863
7.796884
4.878640
4.410744
4.153848
3.895760
3.740788
3.804564
4.511476
6.331801
8.723736
13.804436
19.006729
27.406812
33.851862
41.219592
45.095682
46.672821
44.908524
39.428473
33.575892
##ZVALUE=360
0.086427
0.180602
0.286698
0.195503
0.171661
0.319481
0.175834
0.156760
0.272989
0.403523
0.228882
0.412464
0.302792
0.325441
0.448823
0.106692
0.294447
0.365973
0.328422
0.336766
0.325441
0.292659
0.506639
0.331998
0.292659
0.375509
0.281930
0.353456
0.278950
0.225902
0.318885
0.356436
0.348687
0.451803
0.366569
0.337958
0.260472
0.312924
0.394583
0.395775
0.322461
0.492930
0.402927
0.354648
0.484586
0.601411
0.436902
0.469685
0.618696
0.518560
0.547767
0.704527
0.702739
0.862479
0.731945
0.778437
0.844598
0.765920
0.929832
0.819564
1.113415
1.419783
3.682971
19.792914
52.249432
142.040849
247.897506
433.880687
604.059696
791.901946
868.780017
858.246684
764.735937
557.794571
389.900804
201.189518
107.223988
37.930608
13.822913
4.966855
4.324913
3.963709
3.864765
3.792644
3.631711
3.562570
3.877878
5.147457
6.852746
10.707974
15.070438
22.718906
28.955936
36.368966
40.101409
42.619705
##ZVALUE=365
0.207424
0.085831
0.175834
0.144839
0.094771
0.099540
0.193715
0.215769
0.194907
0.217557
0.237823
0.253916
0.189543
0.170469
0.167489
0.285506
0.258684
0.297427
0.279546
0.333786
0.334978
0.311732
0.228882
0.355840
0.333786
0.259876
0.277758
0.373721
0.387430
0.340939
0.288486
0.261664
0.415444
0.414848
0.455976
0.533462
0.443459
0.284910
0.458956
0.329614
0.416636
0.293851
0.386834
0.458956
0.361800
0.436902
0.471473
0.478625
0.515580
0.464916
0.521541
0.753999
0.474453
0.539422
0.562668
0.468493
0.541806
0.719428
0.571609
0.880957
0.932813
0.930429
1.076460
1.186728
1.759529
10.572672
31.129718
90.840459
180.052519
356.194973
514.964461
716.352463
826.599002
863.412619
800.051689
635.446906
473.928452
267.884731
150.933862
55.190921
21.177530
6.114841
4.054904
3.766418
3.592968
3.369451
3.365874
3.257990
3.173947
3.461838
4.123449
6.117821
8.456707
13.373494
18.305779
25.190711
##ZVALUE=370
0.188947
0.148416
0.112653
0.210404
0.299811
0.110865
0.177622
0.097752
0.140667
0.238419
0.114441
0.118613
0.192523
0.184774
0.319481
0.282526
0.191927
0.216961
0.259876
0.229478
0.248551
0.218749
0.219941
0.265837
0.338554
0.205636
0.437498
0.287890
0.402927
0.291467
0.300407
0.334978
0.371933
0.237823
0.280738
0.406504
0.440478
0.297427
0.382662
0.489950
0.370741
0.516772
0.423789
0.251532
0.276566
0.378489
0.359416
0.386834
0.481606
0.451803
0.411868
0.424981
0.563860
0.530481
0.522733
0.365973
0.397563
0.655651
0.653863
0.616908
0.673532
0.843406
0.626445
0.730753
0.930429
1.017451
1.264811
5.164742
18.549562
65.153837
131.921768
274.542570
423.105955
641.289949
772.922635
856.964588
830.790997
697.087646
546.367764
331.267715
197.412968
80.122948
34.790635
9.798408
4.782677
3.751516
3.429651
3.131628
3.077984
2.816916
3.009439
2.869964
3.067851
3.685951
4.856586
7.465482
##ZVALUE=375
0.109673
0.190735
0.135899
0.050664
0.209808
0.222921
0.060797
0.072718
0.174642
0.200868
0.281930
0.261664
0.103712
0.204444
0.195503
0.180602
0.015497
0.155568
0.109673
0.107884
0.122786
0.123978
0.082850
0.184774
0.229478
0.213981
0.183582
0.238419
-0.038743
0.190735
0.293851
0.216961
0.193715
0.133514
0.117421
0.285506
0.304580
0.308752
0.188947
0.263453
0.223517
0.281930
0.369549
0.377893
0.212789
0.267625
0.333786
0.267625
0.099540
0.249743
0.340939
0.426769
0.384450
0.281930
0.349879
0.382662
0.383854
0.325441
0.368953
0.312924
0.465512
0.372529
0.390410
0.558496
0.562668
0.604987
0.738502
0.858903
1.090765
2.503991
9.020567
37.357807
86.523890
208.746791
342.186689
551.109910
694.242716
819.515586
841.894746
746.985674
610.182881
398.518443
264.141560
133.634806
67.025423
20.321608
7.468462
3.512502
3.278852
2.876520
2.734661
2.549887
2.610683
2.480745
2.454519
2.578497
##ZVALUE=380
0.196695
0.176430
0.253916
0.198483
0.072718
0.307560
0.263453
0.188947
0.179410
0.128746
0.143647
0.018477
0.186563
0.397563
0.236630
0.230670
0.145435
0.204444
0.042915
0.348687
0.081658
0.367761
0.404716
0.349879
0.170469
0.178814
0.163913
0.343919
0.196695
0.080466
0.396967
0.412464
0.240803
0.174642
0.291467
0.278950
0.317693
0.396967
0.345707
0.244975
0.311732
0.282526
0.385642
0.275970
0.255704
0.337958
0.293851
0.197887
0.252724
0.337958
0.310540
0.342727
0.354648
0.407696
0.315905
0.319481
0.272989
0.350475
0.358820
0.357628
0.435710
0.389814
0.365973
0.577569
0.703931
0.614524
0.641942
0.819564
0.774860
0.997782
1.083612
1.323819
4.474521
25.112629
63.614845
162.123442
276.734829
466.419458
623.479486
788.303614
839.609504
782.445669
677.737594
499.667525
352.377892
183.431506
96.803904
32.993555
12.509823
4.222989
3.208518
2.859831
2.750754
2.548695
2.488494
2.427697
##ZVALUE=385
0.190735
0.153780
0.151992
0.158548
0.304580
0.243783
0.061989
0.160933
0.222921
0.212789
0.165701
0.189543
0.059605
0.132918
0.259876
0.226498
0.096560
0.130534
0.290871
0.246763
0.314713
0.180602
0.032783
0.308752
0.198483
0.231862
0.331998
0.157952
0.211596
0.249743
0.377893
0.384450
0.330806
0.358820
0.242591
0.253916
0.362992
0.378489
0.263453
0.437498
0.402927
0.151992
0.240803
0.425577
0.318885
0.377893
0.284910
0.372529
0.356436
0.379682
0.261664
0.372529
0.373721
0.386834
0.094771
0.317693
0.342727
0.340939
0.324845
0.411868
0.288486
0.401735
0.555515
0.463724
0.416636
0.462532
0.606775
0.758767
0.820756
0.783801
0.832677
0.803471
0.908971
1.047850
2.094507
12.575984
36.485791
103.342533
197.089911
378.328562
538.402796
721.375942
805.125833
822.670460
762.981772
600.614548
450.938940
263.288617
154.776573
64.643621
25.270581
6.337762
3.350973
2.868772
2.620816
2.464652
##ZVALUE=390
0.182986
0.194907
0.174642
0.299811
0.229478
0.178814
0.190735
0.130534
0.084639
0.055432
0.302792
0.181794
0.154972
0.249743
0.229478
0.151992
0.098944
0.237823
0.109673
0.204444
0.221729
0.180602
0.322461
0.297427
0.168681
0.307560
0.244975
0.276566
0.130534
0.462532
0.331998
0.305772
0.365973
0.444651
0.640750
0.472665
0.329614
0.422597
0.292659
0.461936
0.374913
0.387430
0.417829
0.320673
0.501871
0.191927
0.423789
0.353456
0.422597
0.261664
0.391603
0.242591
0.192523
0.296831
0.366569
0.231862
0.326633
0.276566
0.317693
0.410676
0.451803
0.427961
0.428557
0.412464
0.398755
0.411868
0.695586
0.595450
0.763535
0.784993
0.862479
0.755787
0.846982
0.732541
0.825524
0.888705
1.360774
4.844666
26.130676
65.754652
167.783499
281.514525
459.695458
607.509613
768.316984
832.004547
808.624625
713.799596
526.440740
374.191999
202.498436
108.649731
37.386417
13.361573
3.802776
2.808571
##ZVALUE=395
0.267625
0.169873
0.117421
0.112653
0.201464
0.124574
0.105500
0.136495
0.270605
0.066757
0.130534
0.086427
0.116825
0.229478
0.196695
0.211596
0.069737
0.302792
0.190735
0.288486
0.125766
0.226498
0.286698
0.236630
0.195503
0.318885
0.296831
0.318885
0.251532
0.309944
0.319481
0.398755
0.370741
0.351667
0.385642
0.683665
0.548959
0.362992
0.432730
0.408888
0.391603
0.366569
0.480413
0.261664
0.325441
0.351667
0.256896
0.390410
0.441670
0.346899
0.260472
0.322461
0.329614
0.464916
0.399947
0.367761
0.311732
0.390410
0.459552
0.382662
0.408888
0.474453
0.533462
0.498891
0.462532
0.674725
0.580549
0.763535
0.661612
0.777841
0.641942
0.711679
0.613928
0.546575
0.597835
0.640750
0.800490
0.807643
0.868440
3.104806
12.584925
50.661564
106.974840
229.915977
357.952714
556.961894
692.068934
811.770558
842.550993
764.665008
631.312728
423.711538
284.552574
142.080784
69.737434
21.615624
##ZVALUE=400
0.107884
0.143647
0.209808
0.084639
0.004768
0.115633
0.196695
0.167489
0.120997
0.053644
0.142455
0.081658
0.029802
0.131726
0.076890
0.122786
0.274777
0.208616
0.052452
0.150800
0.164509
0.091791
0.144839
0.114441
0.184774
0.150800
0.172853
0.249743
0.355840
0.343919
0.425577
0.339746
0.427961
0.485778
0.449419
0.415444
0.405908
0.385642
0.463724
0.470877
0.448823
0.335574
0.377893
0.401735
0.496507
0.322461
0.460744
0.432730
0.407696
0.463724
0.328422
0.299811
0.393987
0.299811
0.292659
0.290871
0.458956
0.294447
0.386834
0.324845
0.414848
0.324845
0.488758
0.405908
0.537634
0.621676
0.478625
0.605583
0.612736
0.650883
0.793934
0.776649
0.527501
0.663996
0.726581
0.626445
0.769496
0.731945
0.638962
0.827909
0.936985
1.453757
7.231832
23.176670
74.550509
144.733787
292.364955
430.261493
624.873638
741.636753
814.930797
791.614652
664.393902
520.742536
324.217677
204.955935
##END
