##TITLE=FKDZ0152
##FORMAT=SPECTACLE-ASCII V-1.2
##DATA TYPE=ULTRAVIOLET SPECTRUM
##SECOND TYPE=ULTRAVIOLET SPECTRUM
##DATE=05/24/18
##TIME=18:58:07
##SPECTROMETER/DATA SYSTEM=SPECTACLE
##XUNITS=NM EM
##YUNITS=ENERGY
##YFACTOR=1
##FIRSTX=220
##LASTX=410
##NPOINTS=96
##3DDATA=Equidistant
##ZUNITS=NM EX
##FIRSTZ=210
##LASTZ=400
##ZPOINTS=39
##XYDATA=(Y..Y)
##ZVALUE=210
5.255938
5.170703
4.583597
4.918575
5.048513
5.315542
4.421473
5.012751
4.319549
4.495978
3.304482
4.317760
3.444552
3.743768
3.383756
4.380941
3.784895
4.451871
3.890991
5.370975
5.417466
5.270839
4.808903
7.001758
7.745624
11.387467
14.244914
17.863512
22.833943
25.864840
33.801794
36.374927
40.177703
41.213632
43.331981
43.860674
44.609904
43.549538
42.884946
41.350722
35.717487
38.459897
32.392740
31.168461
28.951764
27.616620
27.180910
26.697516
22.744536
21.398664
20.045638
19.200444
18.519759
16.971827
15.761852
16.006827
15.031695
13.402700
13.433695
12.854934
11.851788
11.860728
12.351871
11.908412
13.431907
12.498498
14.037490
14.535785
18.864870
20.712614
21.886826
25.046468
27.886629
29.291511
33.673644
34.185648
30.601621
30.205846
27.015805
25.252700
19.652843
16.063452
15.746951
12.860894
11.873841
9.287000
8.365512
9.335876
7.911921
7.998943
9.075999
10.764599
12.190938
11.601448
11.741519
14.986992
##ZVALUE=215
21.779537
22.587776
17.734766
13.521910
12.984872
10.087490
11.557937
10.691881
11.582971
10.252595
9.896755
7.299781
7.118583
5.537868
4.457831
4.287958
3.682971
3.579855
4.604459
4.012585
4.972816
5.222559
5.813837
6.736517
9.693503
12.369752
19.341707
25.858879
38.745999
42.909980
54.889917
57.974458
67.098737
74.416995
73.945522
75.840950
74.991584
75.788498
73.088408
71.579814
64.280629
59.733987
55.384636
51.540732
48.059821
45.068860
42.020679
37.096739
35.889745
32.768846
30.028820
27.587414
25.694966
25.384426
21.988750
21.179914
20.222664
17.845631
17.273426
15.796423
15.297532
13.538599
13.957620
13.135672
13.473630
13.875961
14.607906
15.767813
15.093684
17.448664
20.143986
21.914840
22.485852
22.589564
25.705695
24.930835
23.881793
21.490455
19.502640
17.243624
15.547872
13.253689
10.695457
9.579659
9.477735
8.919835
8.558631
8.580685
8.148551
8.116961
7.637739
8.171797
8.381605
6.935596
8.582473
8.991957
##ZVALUE=220
69.641471
69.667697
67.517757
59.347749
49.440861
36.312938
29.927492
25.552511
22.145510
22.333860
23.316741
21.999478
19.963980
17.617941
13.445616
10.531545
6.949902
6.637573
4.857779
5.056858
5.021691
4.795790
5.072951
6.850958
10.405779
16.779900
24.387836
36.269426
49.731731
64.035654
74.677467
87.538958
94.369650
107.051730
111.757517
112.399459
114.139915
112.216473
106.474757
100.449920
95.317960
90.155602
84.438920
80.353618
74.531436
65.558553
58.945417
54.270625
52.731633
45.073628
41.527748
39.252639
35.766959
31.767488
29.469728
25.977492
26.207566
23.234487
21.383762
21.060705
19.238591
16.190410
16.398430
15.960932
15.436411
14.922619
14.612675
16.330481
16.082525
16.130805
17.925501
18.572807
18.283725
19.143820
17.645955
16.768575
17.598867
15.721917
15.686750
13.535619
11.104941
11.257529
10.261536
8.771420
8.458495
8.394718
7.394552
7.619858
7.450581
7.546544
7.459521
6.299615
7.125735
5.929470
7.654428
6.853938
##ZVALUE=225
107.194781
113.648772
131.653547
149.234533
147.089958
130.554438
114.458799
83.598495
63.538551
50.731897
41.881800
38.326979
38.606524
42.187572
39.465427
35.341978
28.429627
22.175908
14.138818
10.509491
8.034706
5.008578
4.090667
6.467700
9.007454
16.934872
23.107529
36.264658
46.022534
64.787865
74.996948
89.212656
97.190738
109.408498
114.804506
118.269920
114.754438
116.691589
109.190941
106.974840
101.757646
92.224479
88.545680
81.462860
78.198910
71.530938
64.826608
58.938861
54.062605
48.739910
44.756532
40.655732
36.370754
35.695434
30.549765
28.777719
26.712418
22.080541
23.302436
21.536946
19.007921
18.273592
18.393993
15.516877
15.099645
15.319586
14.931560
15.538931
14.857650
16.533732
15.913844
17.352700
17.895699
17.272830
17.141700
16.585588
15.756488
13.784766
13.007522
11.857748
11.336803
9.340644
9.461641
9.259582
8.322597
8.663535
8.071661
7.583499
8.059740
7.647872
8.021593
7.475615
7.037520
7.167459
7.086992
7.120967
##ZVALUE=230
75.535774
84.558725
128.157735
190.939903
237.996578
266.343951
272.751451
247.885585
214.936733
171.616673
111.749768
84.598660
64.830780
63.365698
64.734817
67.426562
69.835782
63.623786
54.501891
42.424798
29.838681
19.390583
13.100505
8.531809
8.913875
11.176467
15.324950
23.285747
29.026866
41.662455
47.389865
57.010651
62.290430
66.728592
70.924759
73.723793
73.421001
71.524978
69.706440
68.902969
65.583587
63.600540
59.193969
54.207444
50.688982
46.080947
43.950677
40.670633
38.174987
34.704804
32.704473
29.391646
27.348995
25.193691
23.581982
23.173690
19.587874
18.616915
18.861890
17.727613
16.036630
15.601516
14.209747
14.642477
14.179945
13.484955
13.335943
14.102459
14.076829
15.109777
14.510751
15.789866
15.337467
15.671849
15.705824
14.785528
14.152527
13.010502
12.781620
12.568831
11.571646
10.921955
9.923577
8.803606
9.283423
9.449720
9.229779
9.083748
8.643866
8.593798
7.985830
8.098483
7.991791
7.996559
7.812977
7.411838
##ZVALUE=235
18.387437
21.207929
55.187941
99.633932
181.380510
248.439908
341.245532
389.824510
406.358838
377.726555
314.955711
249.645710
182.248950
117.989779
91.336966
79.425573
79.644918
87.313652
90.439916
89.399815
82.336664
68.326592
48.211813
35.020709
21.913648
15.464425
11.751652
11.653900
14.902949
16.650558
20.304918
21.817684
24.781823
28.736591
29.892921
30.294657
32.813549
32.495856
33.517480
31.649470
32.200813
30.166507
29.394627
28.734803
28.722882
26.948452
25.255680
24.522543
23.870468
22.252798
20.917654
18.537641
18.687844
17.678738
17.541647
15.432835
14.301538
14.136434
13.355613
13.652444
13.007522
12.463927
12.694597
13.068914
12.428761
11.632442
11.878610
12.161732
12.326837
12.817979
14.209747
13.719797
14.844537
14.411807
14.099479
13.885498
12.968779
12.486577
11.564493
11.603832
10.981560
10.348558
9.851456
10.197759
10.105968
9.469986
9.776950
9.143949
8.820891
9.576678
9.647608
8.700490
8.390546
8.735657
8.900762
8.526444
##ZVALUE=240
1.636744
1.765490
5.263686
20.881891
47.953725
110.963583
181.494951
302.786827
388.474464
480.317473
519.800782
494.441986
433.603525
328.418612
248.662829
177.574754
117.343664
96.068978
86.188912
93.696713
104.786754
107.632875
100.631714
89.253783
69.020987
54.209828
41.619539
26.097894
19.758940
15.278459
13.801455
13.659000
15.147924
15.881658
16.787648
19.112825
19.507408
21.076798
21.422505
22.376776
22.387505
22.197962
22.211671
22.325516
21.402836
20.324588
19.431710
19.832850
18.937588
17.703772
19.289851
16.964674
16.526580
14.776587
15.260577
13.811588
13.276935
12.924671
12.444854
12.266636
11.219978
11.580586
11.292696
11.159778
10.664463
11.444688
10.753870
11.161566
10.866523
12.188554
12.407899
12.434721
13.286471
13.439655
13.002753
12.927651
12.565851
12.212992
11.504889
10.974407
10.796785
10.479689
10.282993
10.060668
10.114908
9.648800
9.339452
9.819865
9.820461
8.922815
9.462833
9.372830
8.794665
7.975698
9.220839
9.152889
##ZVALUE=245
1.083612
1.071692
1.113415
1.387000
3.394485
11.518598
40.347576
83.045959
181.391835
276.214480
413.630009
508.617759
564.336777
579.141974
544.502735
434.604883
346.349478
227.539539
157.907605
100.133419
86.041689
87.918639
100.779533
109.539628
114.644766
108.289719
96.729994
82.966685
61.952472
49.154758
38.911700
26.964545
24.230480
21.195412
21.771789
23.032427
24.136901
25.192499
25.894642
25.225878
25.048852
26.533604
26.532412
24.079680
24.767518
23.299456
22.561550
22.793412
20.954609
20.411611
18.985868
18.452406
16.640425
16.046762
15.247464
14.565587
14.533997
12.743473
12.378693
11.553764
11.159778
10.373592
10.410547
10.432601
9.587407
10.058880
10.184646
9.948611
10.313988
10.105968
11.082888
11.243820
11.718869
11.894703
11.223555
11.279583
11.072755
10.771751
10.389686
10.106564
9.345412
9.779930
9.061694
9.213686
9.350777
8.574724
8.783937
8.475780
8.848906
9.188652
8.352995
8.323789
8.526444
8.402467
7.952452
8.244514
##ZVALUE=250
0.866652
0.840425
1.007915
0.924468
0.970960
1.057982
2.115965
6.240606
28.501749
62.223673
146.781802
243.418813
348.131657
494.085550
579.289794
635.889769
622.669458
539.188981
447.278619
302.715898
203.061700
134.002566
84.102750
76.605678
88.858604
101.982951
116.334558
122.756958
119.269490
113.876462
100.724697
81.997514
67.356825
53.457618
44.613481
38.362741
36.398768
34.144521
35.301447
34.511685
34.300685
33.808947
33.537745
32.435656
31.550527
28.506517
28.842688
25.882721
24.900436
22.970438
22.436976
20.840764
19.997954
17.820597
17.323494
15.924573
14.793873
13.717413
13.258457
12.113452
11.611581
11.102557
10.987520
10.146499
9.736419
9.560585
9.613633
9.587407
9.600520
9.789467
9.808540
10.833740
10.328889
10.136962
9.938478
9.937882
9.275675
9.528995
9.000897
8.795857
7.960796
8.174777
8.172989
8.483529
7.851720
7.597804
8.116961
7.932782
7.279515
8.089542
8.098483
7.648468
7.608533
7.378459
7.629991
7.795691
##ZVALUE=255
0.858903
0.681877
0.958443
0.866652
1.003742
0.909567
0.916719
1.121759
1.298785
2.580881
14.825463
39.929748
107.814670
182.356834
318.162441
438.737869
592.064857
659.573674
688.851476
642.556548
553.690791
396.541953
278.996825
159.032941
102.647543
73.429942
75.931549
97.131729
115.586519
135.798454
143.266916
147.330761
139.647722
123.585463
108.265877
87.696910
75.139999
61.877966
55.575967
50.551891
47.728419
46.194792
44.329762
41.609406
39.761662
38.651824
35.110712
32.610893
31.557679
28.865933
26.364923
24.839640
23.240447
20.770431
18.863678
17.656684
16.905665
15.377998
14.101863
13.751984
12.545586
11.186600
11.570454
10.777712
10.184646
10.012984
9.597540
9.193420
9.422898
9.355545
9.318590
9.880662
9.579659
9.296536
9.086728
8.846521
8.541942
8.818507
8.149743
7.767677
7.689595
7.493496
7.648468
7.184744
6.732941
7.447600
7.118583
7.222891
7.272959
6.761551
7.013679
6.918907
6.843805
6.642938
7.261634
7.349849
##ZVALUE=260
0.412464
0.730753
0.848770
0.801682
0.781417
0.834465
0.792742
0.904799
0.836849
1.040697
1.285672
1.701713
5.646944
25.688410
60.215592
146.996975
242.608786
401.811004
528.813601
677.756667
741.179585
742.670894
650.471449
530.967712
354.298949
239.504576
144.426823
100.521445
84.527731
95.012784
122.574568
144.230723
165.586472
179.530978
180.597901
167.566538
155.757666
130.363703
110.418797
90.299845
77.715516
67.201853
60.459971
55.605769
52.558780
48.007965
44.176579
40.724874
38.014650
35.143495
32.207966
29.751658
27.274489
25.082827
23.283958
20.442605
19.024611
17.392635
16.167760
14.208555
14.105439
13.012886
12.027621
11.094809
10.717511
10.348558
10.031462
9.442568
9.343624
8.961558
9.419918
9.044409
9.122491
8.791685
8.509755
8.012652
8.129478
8.094907
7.652640
7.400513
7.270575
6.985664
7.284880
7.073879
6.704926
6.861687
6.544590
6.748438
6.575584
6.420612
6.108880
6.534457
6.463528
6.479621
6.406903
6.608963
##ZVALUE=265
0.701547
0.733733
0.785589
0.830889
0.763535
0.765920
0.699759
0.724792
0.837445
1.085997
0.921488
1.059771
1.047850
1.465678
2.975464
16.609430
42.073727
108.614564
192.229748
358.398557
507.093668
645.466447
778.828859
800.606608
731.639862
630.461574
472.795963
344.408751
212.635994
149.081945
115.065575
108.164549
124.358535
156.438947
178.994536
197.764635
202.798843
196.994543
184.349418
160.189867
140.722990
113.102794
95.604658
76.476932
66.136718
56.061745
51.973462
47.537684
43.840408
39.747953
36.990643
32.869577
30.903816
27.627945
25.747418
23.036599
21.348596
19.250512
18.008947
15.762448
15.504956
14.414787
13.378859
12.183785
11.798739
11.289716
10.849833
10.048747
10.134578
10.093451
9.829998
9.822845
9.319782
9.532571
8.664727
8.852482
8.392930
8.178949
7.811785
7.265806
7.492900
7.076859
6.783605
6.818771
7.057786
6.964803
6.681681
6.135702
6.517768
6.532669
6.646514
6.333590
6.428957
6.280541
6.194711
6.204844
##ZVALUE=270
0.649691
0.681877
0.534654
0.558496
0.710487
0.635982
0.707507
0.823736
0.771880
0.839829
0.936985
0.995994
0.888705
1.061559
1.118779
1.299977
1.639724
7.121563
22.127628
75.561404
146.521926
248.044729
447.065830
606.210828
776.216984
840.836763
830.321908
759.692788
607.348680
474.841595
314.039588
216.442943
156.441927
120.549798
119.962692
139.968991
156.678557
177.995563
190.815926
195.835829
190.785527
173.200965
152.537823
125.047565
102.041960
78.918934
65.566897
52.949786
46.270490
39.979815
36.598444
32.920837
30.636787
26.850700
25.438666
23.038983
21.435618
19.836426
18.735528
16.772747
15.555620
14.876723
13.937950
12.732744
12.344718
11.494756
11.198521
10.948777
10.604858
10.704994
10.181665
10.439754
9.843707
9.487867
9.471774
9.170771
8.755922
8.206964
8.156896
7.733703
8.024573
7.286668
7.217526
7.078648
7.235408
6.705523
6.770492
6.648898
6.378889
6.241798
6.278753
5.836487
5.842447
5.855560
5.935431
5.914569
##ZVALUE=275
0.650883
0.614524
0.573993
0.734925
0.439882
0.654459
0.585914
0.609756
0.645518
0.885725
0.822544
0.720620
0.842810
0.935793
0.978708
1.014471
1.019835
1.118779
1.188517
3.020763
12.156963
35.410523
106.282830
205.943584
391.199589
537.894964
714.658499
823.769569
882.422924
846.816897
729.889870
598.047972
403.717756
273.301005
161.440969
115.107894
90.645552
94.023943
112.218857
126.925707
146.533847
157.442689
165.348649
159.913898
143.374801
126.127601
101.149678
81.783533
59.982538
47.016740
34.771562
28.437972
24.345517
22.035837
20.380616
19.220710
17.844439
16.514659
16.044974
15.375614
14.590621
13.602972
13.066530
12.206435
11.851788
11.629462
11.373758
11.199713
10.906458
10.773540
10.519624
10.739565
10.664463
10.536909
9.891987
9.638667
9.179711
9.386539
8.593798
8.204579
8.067489
7.776618
7.770658
7.537603
6.852746
6.972551
6.917715
6.819963
6.520748
6.385446
6.331801
5.995631
5.877614
6.101727
5.581975
5.622506
##ZVALUE=280
0.542998
0.466704
0.592470
0.559688
0.664592
0.499487
0.590682
0.494719
0.616908
0.561476
0.659823
0.687838
0.666976
0.639558
0.716448
0.922680
0.765920
1.046658
0.927448
1.044869
1.206994
1.284480
7.211566
26.190877
84.207654
159.007907
302.134752
445.966721
642.443895
776.033998
866.832733
881.913900
815.532804
638.647676
483.138561
291.489959
184.577703
93.532801
59.473515
48.940778
55.958629
75.175762
90.932846
112.535954
125.155449
132.095814
129.969716
116.537809
102.717876
78.856945
61.855912
42.347908
31.340718
22.127628
16.817451
14.266968
13.316870
12.704730
12.331605
12.685657
12.031794
11.992455
11.920929
11.726618
11.584759
11.741519
11.445880
11.599660
11.375546
11.340976
11.446476
11.236668
10.815859
10.742545
10.820627
9.980798
9.956956
9.409785
9.151697
8.699894
8.540750
8.243918
8.106828
7.623434
7.684827
7.259846
7.419586
7.090569
6.855726
6.692410
6.591678
6.384850
5.945563
5.837679
5.973577
5.809665
##ZVALUE=285
0.435710
0.606775
0.613928
0.575781
0.577569
0.497699
0.485778
0.660419
0.502467
0.409484
0.745654
0.471473
0.627637
0.685453
0.705719
0.833869
0.701547
0.873804
0.868440
0.904799
0.843406
1.052618
1.048446
1.255870
3.367662
12.201667
44.382811
94.160438
208.788514
336.746573
486.030579
693.679452
819.318891
895.911455
866.127014
723.972917
580.395460
372.384787
238.330960
116.026998
60.254931
29.212832
26.819706
38.464665
53.264499
75.905919
90.757608
108.712912
116.303563
117.206573
109.800696
93.684793
77.021718
55.769682
41.206479
25.938749
19.059777
14.592409
12.321472
11.628866
11.900663
12.076497
11.861920
11.673570
12.024641
12.112856
12.124777
12.270808
11.978745
12.788773
12.441874
12.243986
12.212992
11.844635
11.614561
10.942817
10.986924
10.611415
10.161996
9.531975
9.397864
9.087920
9.152889
8.545518
8.537769
8.111596
7.858872
7.753968
7.732511
7.058978
6.931424
6.697774
6.402731
6.175637
6.307960
6.028414
##ZVALUE=290
0.466704
0.525713
0.308752
0.516772
0.490546
0.418425
0.463724
0.443459
0.501871
0.465512
0.466704
0.574589
0.639558
0.439882
0.512600
0.618696
0.650883
0.664592
0.727773
0.837445
0.793934
0.782609
0.896454
0.988841
1.061559
1.263618
1.501441
4.661679
24.442673
58.466792
116.654634
253.037810
397.850871
621.751547
764.946938
892.164707
904.268026
806.812644
678.089857
470.046997
318.040848
163.321495
87.627769
34.034848
20.268559
23.459792
32.465458
48.970580
64.111948
86.751580
101.120472
112.702847
114.833713
106.349587
94.362497
72.519779
57.308674
39.597750
29.042959
20.044446
16.157627
13.379455
12.858510
12.659431
12.368560
12.880564
12.665987
13.425946
13.296604
13.188720
13.626814
13.195872
13.171434
12.917519
12.457967
11.773705
11.912584
11.543632
11.028647
10.501742
10.477901
10.036826
9.713769
9.117723
9.085536
8.441806
8.416772
8.084774
7.829666
7.444620
7.350445
6.994605
6.648898
6.426573
6.287694
6.124973
##ZVALUE=295
0.455976
0.476837
0.466704
0.563860
0.392795
0.450611
0.549555
0.300407
0.406504
0.494719
0.408888
0.385642
0.529885
0.514984
0.523925
0.438690
0.536442
0.648499
0.666976
0.750422
0.738502
0.647902
0.688434
0.745654
0.821948
0.826716
0.935793
1.124740
1.271963
2.003908
10.536909
33.089519
79.888701
196.469426
322.662592
534.452796
685.766935
846.846700
903.175473
864.533782
761.782527
567.601919
401.654840
215.655565
120.808482
47.224760
22.970438
15.248656
19.635558
31.305552
44.067502
63.845515
79.264641
96.884966
106.515884
110.222697
104.747415
89.010596
75.419545
56.250691
43.109655
28.502941
21.727681
16.586781
14.468431
13.443828
13.229847
13.118982
13.309717
13.315678
13.471842
13.306737
13.440847
12.643933
12.919903
12.203455
11.984706
11.479855
11.251569
10.656714
10.683537
10.060668
9.545684
9.342432
9.167790
9.047985
8.293986
8.076429
7.732511
7.351637
6.943941
7.008910
6.641746
6.359816
6.310940
6.035566
##ZVALUE=300
0.407696
0.341535
0.381470
0.306964
0.397563
0.479817
0.417829
0.417829
0.478625
0.492930
0.427961
0.324845
0.468493
0.442863
0.387430
0.480413
0.504851
0.547767
0.429749
0.460744
0.589490
0.641942
0.542998
0.737906
0.751615
0.748634
0.697970
0.845790
0.853539
1.016855
1.220703
1.284480
4.201531
16.441941
60.399771
122.918487
260.888934
407.629013
620.643497
759.670734
883.659720
904.373527
817.673802
695.079565
479.160547
322.944522
167.827606
91.395974
34.437776
16.457438
13.656616
18.078685
27.902722
39.724708
57.494640
74.300766
92.680454
101.709962
105.313659
101.360679
88.478923
76.478720
57.182908
43.777823
29.649734
21.986961
16.559958
14.273524
12.635589
12.374520
12.340546
12.243986
11.825562
11.897683
11.547804
11.390448
10.733604
10.738969
10.430813
10.097623
9.608865
9.353757
9.412766
8.904934
8.689761
8.400679
7.905960
7.732511
7.464886
7.155538
6.667972
6.818771
6.419420
6.054640
6.182790
5.710721
##ZVALUE=305
0.399947
0.315905
0.368953
0.488758
0.400543
0.428557
0.304580
0.367761
0.261664
0.396967
0.427961
0.336766
0.370741
0.484586
0.442863
0.455976
0.484586
0.384450
0.548959
0.528693
0.497699
0.503659
0.596642
0.497699
0.618696
0.596642
0.750422
0.714660
0.761747
0.761747
0.965595
0.895858
1.041889
1.413822
1.897812
10.492802
31.713843
96.177459
180.131793
347.480774
502.011776
707.799792
834.892988
908.203721
880.021453
731.638670
586.930513
388.302803
248.861909
115.841627
58.574677
20.499825
11.624694
12.709498
16.839504
27.844906
38.691759
56.129694
70.169568
87.031722
96.578002
99.658966
95.904469
84.890723
72.365999
54.212809
40.574670
27.070642
19.868612
14.108419
12.263656
10.753870
10.154843
9.769797
9.807944
9.380579
9.070635
8.966923
8.744597
8.406639
8.419752
8.191466
8.042455
7.797480
7.604957
7.441640
6.946921
6.819963
6.458759
6.460547
6.252527
5.893707
5.847812
5.548596
5.549788
5.665421
##ZVALUE=310
0.420809
0.304580
0.366569
0.433922
0.273585
0.429749
0.423789
0.293851
0.331998
0.167489
0.308752
0.400543
0.378489
0.339746
0.568628
0.456572
0.547767
0.495911
0.452995
0.522733
0.460744
0.572801
0.468493
0.556707
0.608563
0.670552
0.590682
0.511408
0.515580
0.657439
0.784993
0.624657
0.968575
0.993609
0.992417
1.116991
1.294613
4.381537
15.267730
55.408478
115.121603
250.010490
392.851830
601.967573
756.614804
895.648599
914.979577
838.845968
715.595484
503.933430
347.531438
180.347562
98.170638
35.823584
15.546679
9.719729
11.324883
15.644431
21.939874
34.683943
46.626925
64.473748
77.240467
88.292956
92.755556
90.363622
82.184672
68.053603
53.636432
36.962628
27.014613
18.013716
13.309717
9.795427
8.742809
7.909536
7.692575
7.599592
7.159710
7.109642
7.049441
6.745458
6.722808
6.603599
6.559491
6.380677
6.233454
6.054640
6.018877
5.799532
5.481839
5.199909
5.194545
5.443692
4.867911
4.816651
##ZVALUE=315
0.323653
0.392795
0.340939
0.390410
0.309944
0.255704
0.366569
0.374913
0.354648
0.334978
0.420809
0.426769
0.256896
0.384450
0.303984
0.480413
0.317693
0.278950
0.439882
0.473857
0.493526
0.509620
0.659823
0.553727
0.345707
0.457764
0.610948
0.628829
0.793934
0.575781
0.709891
0.496507
0.787973
0.869632
0.609756
0.936985
0.890493
0.955462
1.190901
1.758933
9.282827
27.754903
87.226629
166.437626
332.264900
489.961505
694.453716
821.473598
915.445685
900.606513
772.934556
628.615022
414.456725
269.174576
129.017830
61.683655
18.760562
9.840727
8.413792
9.435415
13.477802
19.535422
30.720830
41.609406
57.568550
69.975853
81.352592
86.583495
83.898902
75.861812
61.689615
49.791932
35.146475
25.035739
15.839934
11.297464
7.852912
6.636977
6.145835
5.781651
5.799532
5.714893
5.549788
5.448461
5.391836
5.411506
5.213618
5.403757
5.205870
4.962683
4.984736
4.857779
4.760623
4.827976
4.726648
4.701614
##ZVALUE=320
0.293851
0.278950
0.344515
0.409484
0.418425
0.449419
0.430942
0.495911
0.359416
0.460744
0.380874
0.495911
0.426769
0.403523
0.355840
0.482798
0.470877
0.498891
0.404716
0.451803
0.461936
0.345707
0.504851
0.625849
0.585914
0.646710
0.611544
0.770688
0.589490
0.633597
0.650883
0.612736
0.703931
0.657439
0.884533
0.876784
0.879765
1.075864
1.040697
1.156926
1.334548
1.513958
3.176928
17.675757
48.037767
134.110451
232.129693
406.734943
563.264489
765.762925
873.024464
912.866592
861.927867
697.543621
531.463623
314.464569
186.638832
81.308484
36.274791
11.650920
6.991625
6.886721
8.112788
11.197925
16.207695
26.648641
36.727786
51.727891
63.908696
75.865984
80.062747
78.860521
72.288513
58.335662
47.044754
31.835437
22.881627
14.294982
9.877682
6.707907
5.551577
5.091429
4.892945
4.877448
4.742742
4.797578
4.791617
4.621744
4.419684
4.633665
4.459620
4.354715
4.326701
4.441738
4.303455
4.539490
##ZVALUE=325
0.361800
0.231862
0.289679
0.228882
0.323653
0.245571
0.491738
0.436902
0.430942
0.429749
0.368953
0.478625
0.412464
0.276566
0.431538
0.506639
0.311732
0.416636
0.413656
0.501871
0.518560
0.299811
0.473857
0.459552
0.504851
0.329614
0.410676
0.446439
0.511408
0.488758
0.564456
0.496507
0.696778
0.532866
0.752807
0.602603
0.676513
0.910759
0.762939
0.770688
0.808835
0.871420
1.007915
1.242757
1.770854
10.731816
30.704737
86.927414
164.270997
327.790976
477.885008
685.947537
812.512636
902.569890
885.694027
749.759674
595.009923
383.921862
242.809653
111.343861
52.834749
15.992522
7.421970
5.684495
5.703568
7.208586
9.934902
15.771985
23.192763
36.601424
47.432780
60.766935
69.229603
74.536800
73.654652
65.102577
55.498481
41.818619
31.001568
19.333959
13.210773
8.267760
6.249547
5.197525
4.644990
4.569888
4.514456
4.381537
4.132986
4.338622
4.062653
4.288554
4.065633
4.117489
4.245639
4.010797
##ZVALUE=330
0.318885
0.254512
0.218749
0.186563
0.230670
0.376701
0.360608
0.350475
0.266433
0.237823
0.276566
0.305772
0.313520
0.289679
0.413656
0.402927
0.244975
0.345707
0.321865
0.382662
0.499487
0.503659
0.413656
0.346899
0.275970
0.493526
0.279546
0.379682
0.529885
0.359416
0.412464
0.617504
0.562668
0.462532
0.524521
0.554919
0.513792
0.617504
0.684857
0.627637
0.678897
0.746846
0.592470
0.800490
0.876784
1.046658
1.194477
4.364848
14.932752
54.513812
112.781525
244.267583
378.636718
587.663651
740.149617
875.501633
894.109607
801.836848
674.458742
470.941663
318.005681
155.662894
81.054568
27.545691
10.845661
5.523562
5.194545
5.455613
6.410480
9.799600
14.179945
23.179650
32.567978
46.480894
56.275725
66.034794
69.049597
67.808628
62.482953
50.598979
40.703416
27.516484
20.091534
13.251901
9.364486
6.451607
5.208850
4.665852
4.388690
4.387498
4.085898
4.052520
3.861785
3.831983
3.937483
4.001856
##ZVALUE=335
0.287890
0.288486
0.187755
0.203848
0.276566
0.275970
0.450611
0.337958
0.325441
0.249743
0.171661
0.220537
0.354648
0.167489
0.414848
0.359416
0.316501
0.425577
0.327826
0.293851
0.350475
0.268817
0.357628
0.377893
0.355840
0.445843
0.443459
0.304580
0.284910
0.502467
0.486970
0.444651
0.606775
0.393987
0.403523
0.633597
0.649691
0.662804
0.477433
0.544786
0.858903
0.564456
0.534654
0.687838
0.522733
0.629425
0.920892
0.801682
1.036525
1.979470
7.275939
32.661557
74.658990
178.695917
302.619934
510.196686
665.212870
821.595788
882.093906
843.157768
744.917989
544.006824
387.571454
214.240551
115.640759
39.748549
15.966892
6.316900
5.226731
5.300641
5.387664
6.493926
8.479953
13.906956
20.375848
31.758547
41.189790
52.917600
61.035752
65.202713
64.573884
57.220459
49.569607
39.119720
29.876828
19.965768
14.300942
9.231567
6.922483
5.189776
4.329681
4.247427
4.104972
4.003644
3.992915
4.024506
##ZVALUE=340
0.329614
0.177622
0.280738
0.412464
0.224710
0.313520
0.322461
0.198483
0.273585
0.288486
0.273585
0.305772
0.105500
0.235438
0.356436
0.374913
0.258684
0.346899
0.369549
0.256896
0.423789
0.369549
0.270605
0.264645
0.480413
0.370741
0.280738
0.363588
0.480413
0.434518
0.245571
0.419617
0.463724
0.425577
0.490546
0.503659
0.467896
0.675917
0.465512
0.592470
0.475645
0.457764
0.547767
0.500679
0.611544
0.727773
0.519753
0.773668
0.833869
0.941753
1.004934
1.186728
3.208518
18.740892
50.336719
136.813521
245.907903
434.162617
583.481789
761.517882
850.911736
859.294534
788.466930
620.683432
458.961725
257.659554
148.776770
61.336756
24.283528
7.236600
5.501509
5.001426
4.947782
5.321503
6.096959
8.689761
12.543797
20.552874
28.514862
41.072965
49.555898
58.443546
60.925484
60.178638
56.323409
46.975613
38.406849
27.820468
20.838976
13.750792
9.330511
6.168485
4.939437
4.359484
3.911853
3.827810
##ZVALUE=345
0.288486
0.208616
0.279546
0.258684
0.203848
0.368953
0.303984
0.307560
0.160933
0.283718
0.377893
0.133514
0.172853
0.402927
0.272989
0.375509
0.207424
0.474453
0.420809
0.212789
0.398755
0.294447
0.302792
0.303984
0.370741
0.490546
0.387430
0.601411
0.421405
0.450611
0.269413
0.382662
0.308752
0.521541
0.341535
0.435710
0.337958
0.385642
0.487566
0.488758
0.464916
0.521541
0.538826
0.547767
0.544786
0.530481
0.652671
0.628829
0.600815
0.734925
0.714660
0.915527
0.893474
1.253486
1.717806
10.191798
31.891465
92.818737
177.307725
345.177650
496.519804
701.909661
817.036033
876.357555
835.686922
681.625605
527.660847
327.518582
193.039775
77.796578
34.324527
10.852814
5.805492
5.083680
4.802942
4.645586
4.818439
5.671978
7.437468
12.310743
18.266439
27.707815
35.130978
44.746995
51.307678
55.878758
56.254864
52.097440
46.659708
36.931634
28.490424
19.147992
13.711452
8.747578
6.261468
4.833937
##ZVALUE=350
0.178814
0.387430
0.326633
0.318885
0.245571
0.333786
0.141859
0.215769
0.355840
0.278950
0.324845
0.375509
0.372529
0.232458
0.255704
0.257492
0.320673
0.323653
0.523925
0.339746
0.315905
0.301600
0.327826
0.464916
0.364780
0.431538
0.341535
0.287890
0.585914
0.352859
0.460744
0.465512
0.357628
0.437498
0.264645
0.450611
0.403523
0.573993
0.299811
0.368953
0.417829
0.395775
0.382662
0.508428
0.659823
0.591874
0.514984
0.541806
0.710487
0.790954
0.619888
0.789762
0.774860
0.726581
0.847578
0.947714
1.280904
4.896522
17.085671
59.861541
122.703910
263.042450
397.076607
593.291521
733.763576
845.267773
842.092037
739.947557
595.905781
377.753973
241.357684
113.132000
52.036643
14.299750
6.705523
4.876852
4.564524
4.369617
4.188418
4.455447
5.134940
7.755756
10.788441
16.330481
22.091866
31.868815
38.512945
46.713948
50.351620
51.450729
48.843622
42.268634
35.420656
25.865436
19.854903
12.907982
##ZVALUE=355
0.234842
0.134706
0.272989
0.263453
0.227690
0.167489
0.197887
0.377893
0.416636
0.278950
0.332594
0.340939
0.271797
0.260472
0.334978
0.149608
0.186563
0.275970
0.237823
0.208616
0.338554
0.315905
0.210404
0.314713
0.365973
0.276566
0.442863
0.259876
0.437498
0.288486
0.509620
0.340939
0.388622
0.379682
0.369549
0.505447
0.348687
0.534654
0.339746
0.598431
0.450611
0.480413
0.448823
0.485778
0.610948
0.444651
0.562668
0.496507
0.513792
0.543594
0.551939
0.633597
0.552535
0.752807
0.861883
0.738502
0.896454
1.017451
1.052618
1.619458
10.167956
30.438900
91.418624
172.205567
334.899426
482.380986
672.080517
781.573653
831.264853
774.555802
613.168478
467.990637
278.979540
159.176588
62.889457
26.082993
7.752776
4.824996
4.339814
4.050732
4.166961
3.848672
4.131794
4.805923
6.429553
8.984804
13.763905
18.987656
27.700663
34.051538
41.526556
45.480728
47.204494
45.371652
39.315820
33.878684
##ZVALUE=360
0.298619
0.220537
0.363588
0.217557
0.354648
0.258684
0.248551
0.197887
0.243783
0.142455
0.237823
0.250936
0.307560
0.176430
0.252724
0.361800
0.432730
0.223517
0.375509
0.266433
0.386834
0.302792
0.330806
0.292659
0.498891
0.382662
0.387430
0.399947
0.339746
0.326633
0.363588
0.306964
0.293851
0.382662
0.403523
0.381470
0.363588
0.298619
0.380874
0.505447
0.551939
0.436902
0.405908
0.302792
0.546575
0.492930
0.501871
0.430942
0.525713
0.536442
0.570416
0.653863
0.686646
0.639558
0.574589
0.769496
0.716448
0.797510
0.898838
0.857711
1.254678
1.349449
4.261732
14.848709
55.424571
115.032792
245.031714
380.749702
590.744615
723.726749
817.079544
803.510547
694.863796
552.686453
351.734757
220.138431
98.392963
42.952895
11.544824
5.414486
4.125834
4.185438
3.876686
3.785491
3.714561
3.688931
4.273653
4.905462
7.385612
10.613799
16.039610
21.686554
29.361844
35.095811
40.787458
42.608976
##ZVALUE=365
0.298619
0.286698
0.297427
0.327826
0.363588
0.268817
0.113845
0.241995
0.318885
0.416636
0.297427
0.307560
0.198483
0.379682
0.358820
0.199676
0.365973
0.291467
0.382662
0.412464
0.208616
0.288486
0.431538
0.188947
0.456572
0.383854
0.290871
0.330806
0.316501
0.386834
0.415444
0.447631
0.346899
0.339746
0.288486
0.405908
0.419617
0.350475
0.437498
0.301600
0.446439
0.564456
0.489950
0.540614
0.385642
0.470877
0.409484
0.425577
0.646710
0.621676
0.544786
0.243783
0.536442
0.597835
0.456572
0.684857
0.738502
0.773668
0.812411
0.788569
0.851750
0.856519
1.075864
1.291633
1.597404
9.470582
28.815866
85.033774
168.251991
331.958532
472.033620
646.924973
753.580928
799.932480
744.992495
587.754846
439.751744
258.063674
144.379735
52.797794
20.544529
6.155968
4.079938
3.991723
3.693700
3.515482
3.276467
3.328919
3.293753
3.585815
4.133582
6.164908
8.795857
13.725758
18.354654
25.436878
##ZVALUE=370
0.284910
0.180602
0.300407
0.223517
0.234842
0.223517
0.400543
0.079870
0.145435
0.316501
0.247955
0.173450
0.304580
0.335574
0.205636
0.269413
0.321865
0.176430
0.101924
0.229478
0.301600
0.298619
0.315905
0.231862
0.298619
0.272989
0.248551
0.386834
0.298619
0.279546
0.434518
0.428557
0.384450
0.342727
0.462532
0.279546
0.344515
0.446439
0.391603
0.451803
0.370741
0.364780
0.410676
0.394583
0.440478
0.452995
0.457764
0.433922
0.480413
0.459552
0.430942
0.365973
0.366569
0.457764
0.436902
0.425577
0.407696
0.427961
0.473857
0.594854
0.658631
0.658631
0.694990
0.764728
0.841618
0.918508
1.238585
3.705621
21.361709
56.189895
145.127773
245.403647
418.026447
567.904711
729.222894
790.563822
766.291618
669.373870
478.477478
327.990651
163.471699
86.001754
31.740665
12.501478
4.614592
3.613830
3.449917
3.219843
3.044605
2.950430
2.811551
3.050566
3.267527
3.703833
5.274415
7.341504
##ZVALUE=375
0.169873
0.322461
0.292659
0.176430
0.146627
0.242591
0.295639
0.027418
0.282526
0.181794
0.090599
0.192523
0.190735
0.219941
0.247955
0.238419
0.384450
0.314713
0.260472
0.341535
0.281930
0.300407
0.156760
0.192523
0.281930
0.232458
0.356436
0.324845
0.339746
0.275970
0.369549
0.388622
0.365973
0.256896
0.386834
0.293851
0.313520
0.413656
0.277758
0.387430
0.585914
0.381470
0.364780
0.330806
0.514984
0.275970
0.297427
0.375509
0.252724
0.412464
0.366569
0.401735
0.365973
0.422597
0.405908
0.423789
0.444651
0.408888
0.373721
0.499487
0.546575
0.426769
0.551939
0.619888
0.721812
0.683665
0.833869
0.970960
1.094937
2.084970
11.183619
31.269789
89.631677
172.175765
330.887437
469.579697
646.532774
746.514797
777.140856
714.692473
550.027490
407.146811
241.123438
140.757561
56.411624
23.756623
6.267428
3.804564
3.169775
2.902746
2.904534
2.843738
2.778769
2.722740
2.559423
2.706647
##ZVALUE=380
0.245571
0.174642
0.054836
0.321865
0.205636
0.137687
0.361800
0.164509
0.216961
0.109673
0.240803
0.230670
0.280738
0.250936
0.215769
0.214577
0.352859
0.317693
0.250936
0.313520
0.144839
0.181794
0.205636
0.296831
0.296831
0.258684
0.165701
0.285506
0.320673
0.448823
0.378489
0.389814
0.305772
0.479817
0.414848
0.371933
0.425577
0.450611
0.459552
0.325441
0.536442
0.344515
0.390410
0.335574
0.367761
0.229478
0.343919
0.377893
0.514984
0.449419
0.313520
0.386834
0.450611
0.384450
0.459552
0.385642
0.479817
0.564456
0.404716
0.470877
0.416636
0.468493
0.514984
0.575781
0.640750
0.689626
0.792742
0.769496
0.902414
1.064539
1.043677
1.388788
4.130602
22.554994
57.044625
147.247910
250.795484
422.273874
567.048788
718.340874
767.456889
721.506476
628.534555
468.179584
331.027508
174.503922
93.270540
32.674670
12.485981
4.235506
3.243685
2.843738
2.788901
2.668500
2.648830
2.467632
##ZVALUE=385
0.206828
0.271797
0.249743
0.155568
0.178814
0.276566
0.133514
0.172853
0.286698
0.228882
0.151992
0.247955
0.123978
0.219941
0.233650
0.180602
0.197887
0.163913
0.246763
0.284910
0.396967
0.225902
0.240803
0.351667
0.206828
0.218749
0.314713
0.395775
0.311732
0.316501
0.370741
0.580549
0.574589
0.503659
0.419617
0.585914
0.444651
0.403523
0.494719
0.352859
0.557899
0.428557
0.360608
0.453591
0.460744
0.393987
0.062585
0.424981
0.390410
0.435710
0.332594
0.343919
0.415444
0.326633
0.268817
0.500679
0.347495
0.283718
0.393987
0.485778
0.403523
0.328422
0.424981
0.484586
0.590682
0.546575
0.623465
0.730753
0.721812
0.756979
0.837445
0.843406
0.973940
1.149774
1.883507
11.413693
33.504963
95.035434
180.847645
345.367789
487.886667
656.250715
733.173490
751.682520
700.636506
556.359887
420.285463
246.772766
146.273971
61.980486
24.960637
6.293654
3.302693
2.788901
2.860427
2.554655
##ZVALUE=390
0.276566
0.256896
0.195503
0.070930
0.220537
0.202656
0.132918
0.038743
0.192523
0.102520
0.305772
0.213981
0.076890
0.107884
0.226498
0.238419
0.281930
0.340939
0.115633
0.235438
0.389814
0.312924
0.139475
0.303984
0.165701
0.309944
0.341535
0.257492
0.529885
0.427961
0.450611
0.607967
0.542998
0.591874
0.592470
0.619888
0.547767
0.662804
0.527501
0.568628
0.628829
0.549555
0.659823
0.596642
0.513792
0.577569
0.389814
0.455976
0.530481
0.472665
0.450611
0.302792
0.504851
0.409484
0.310540
0.352859
0.472665
0.452995
0.324845
0.401735
0.478625
0.511408
0.425577
0.483990
0.509620
0.731945
0.628829
0.748634
0.685453
0.790954
0.807643
0.902414
0.854731
0.739694
0.900626
0.869632
1.136661
5.283952
19.059777
66.994429
135.153532
278.182626
409.535766
584.321022
690.023899
762.662888
746.436715
638.415813
515.622497
337.882638
206.830502
89.296699
42.027831
12.366772
4.480481
3.009439
##ZVALUE=395
0.222921
0.389814
0.230670
0.261664
0.368953
0.193715
0.179410
0.178814
0.269413
0.135899
0.285506
0.119805
0.191927
0.139475
0.068545
0.136495
0.250936
0.235438
0.320673
0.153780
0.270605
0.226498
0.265837
0.264645
0.158548
0.438690
0.353456
0.395775
0.392795
0.687838
0.580549
0.643730
0.803471
0.704527
0.699759
0.682473
0.795722
0.826716
0.617504
0.879765
0.643730
0.670552
0.707507
0.737906
0.607967
0.546575
0.489950
0.526905
0.411868
0.357628
0.464916
0.482798
0.381470
0.470877
0.505447
0.395775
0.454783
0.327826
0.399947
0.299811
0.461936
0.457764
0.551939
0.489950
0.435710
0.516772
0.626445
0.704527
0.630617
0.682473
0.770688
0.796914
0.759959
0.623465
0.831485
0.680685
0.798702
0.872612
1.158714
2.411604
14.247894
39.311647
102.407932
185.058713
339.974761
475.994945
647.719502
736.647844
768.922567
718.007684
573.146939
429.112911
248.356462
141.211748
54.703951
23.681521
##ZVALUE=400
0.173450
0.261664
0.143647
0.183582
0.267625
0.301600
0.092983
0.241995
0.133514
0.276566
0.355840
0.081658
0.311732
0.210404
0.289679
0.289679
0.232458
0.184774
0.194907
0.264645
0.190735
0.078678
0.408888
0.325441
0.203848
0.338554
0.413656
0.416636
0.397563
0.736713
0.590682
0.633597
0.679493
0.806451
0.909567
0.916719
0.916719
0.757575
0.740886
0.794530
0.675917
0.637770
0.687838
0.641942
0.667572
0.580549
0.527501
0.504851
0.587702
0.613928
0.564456
0.487566
0.371933
0.384450
0.373721
0.432730
0.272989
0.315905
0.314713
0.391603
0.495911
0.548959
0.428557
0.452995
0.443459
0.630617
0.560880
0.680685
0.664592
0.742674
0.867844
0.569820
0.549555
0.422597
0.500679
0.582933
0.645518
0.746846
0.666976
0.880957
0.916719
1.736879
5.452633
25.901794
61.025620
147.288442
248.315930
415.128469
543.492436
680.747032
740.859509
717.204809
634.630919
476.525426
338.056684
185.853839
##END
