##TITLE=KDZ0102
##FORMAT=SPECTACLE-ASCII V-1.2
##DATA TYPE=ULTRAVIOLET SPECTRUM
##SECOND TYPE=ULTRAVIOLET SPECTRUM
##DATE=05/24/18
##TIME=18:24:50
##SPECTROMETER/DATA SYSTEM=SPECTACLE
##XUNITS=NM EM
##YUNITS=ENERGY
##YFACTOR=1
##FIRSTX=220
##LASTX=410
##NPOINTS=96
##3DDATA=Equidistant
##ZUNITS=NM EX
##FIRSTZ=210
##LASTZ=400
##ZPOINTS=39
##XYDATA=(Y..Y)
##ZVALUE=210
6.310940
5.842447
4.856586
5.392432
5.360842
5.621910
5.678535
4.607439
4.766583
4.409552
3.899932
3.533959
3.793836
3.884435
4.022717
4.047751
4.005432
4.778504
5.034804
4.431605
4.811883
5.775690
5.844831
6.148815
6.244779
6.260872
6.991625
6.614923
7.382631
7.626414
7.961988
8.038878
6.129742
8.959770
8.799434
9.426475
9.393692
9.781718
9.622574
9.947419
9.650588
10.188818
11.169910
9.454489
9.850860
10.770559
10.466576
11.467934
12.806654
12.668967
11.674762
11.730790
12.794733
11.544824
14.297962
12.986660
11.665821
12.897849
11.082888
13.165474
12.960434
14.688969
13.972521
14.647841
16.434789
18.234849
19.070506
24.641752
29.581785
31.946898
37.977695
44.398904
44.927001
49.262643
51.763654
49.929619
47.926903
45.839548
40.707588
37.475824
31.539798
26.320815
23.056865
20.367503
17.253757
17.279983
15.509725
15.570521
13.937950
14.810562
14.926791
14.704466
14.656782
16.735792
19.017458
19.725561
##ZVALUE=215
21.864772
21.338463
16.808510
13.742447
13.182759
10.842681
10.244846
10.913610
11.700988
10.509491
9.235740
7.993579
5.951524
5.492568
5.197525
4.202724
4.231930
4.577637
4.252791
5.191565
5.618930
5.843639
5.951524
5.732775
6.673932
6.613731
6.965995
7.272959
7.838607
7.029772
7.761717
7.752776
8.043647
9.007454
9.009838
8.722544
9.107590
10.587573
10.307431
9.874701
10.077953
11.625886
10.006428
11.403561
11.789799
11.345744
11.028647
11.033416
11.739731
11.083484
12.913942
10.819435
11.769533
12.840629
13.549924
12.297630
11.985898
13.635755
12.342930
13.771653
14.390945
14.661551
14.515519
15.517473
15.682578
16.653538
20.055771
21.831989
26.829839
29.160976
31.931996
36.572814
41.128993
44.442415
43.800473
44.746995
42.226911
38.092732
36.337972
31.336546
26.378632
23.979545
22.140741
19.052625
16.434789
16.786456
14.934540
13.982654
12.914538
13.657808
14.271736
13.333559
13.898611
14.654994
14.874935
14.854670
##ZVALUE=220
74.162483
73.451996
69.265962
57.377815
51.509738
39.092898
31.483769
25.332570
22.723675
23.323894
23.339987
22.497773
18.968582
18.642545
14.071465
11.767745
8.906722
6.351471
5.137920
4.711747
4.658699
5.170703
5.987883
4.571676
6.049871
6.041527
6.741881
6.210804
6.309748
7.284880
7.933974
8.214712
8.579493
8.675456
9.244680
8.694530
9.048581
9.509921
10.177493
9.614825
10.570884
9.282827
10.391474
10.549426
10.797977
10.439754
11.557937
10.864735
10.813475
10.426641
11.298656
11.584759
11.022687
12.467504
13.424754
12.492537
12.967587
13.264418
12.743473
13.960600
12.247562
12.965798
13.985634
13.938546
14.236569
16.156435
18.166900
20.499825
22.672415
27.324557
30.378699
32.699704
36.172867
37.373900
38.630962
35.568476
36.309958
32.385588
30.652881
28.679967
24.927855
22.362471
19.225478
18.327832
15.914440
15.675426
14.381409
14.151931
14.043450
12.354851
13.456941
13.674498
12.664795
12.681484
12.886524
12.990832
##ZVALUE=225
119.647980
123.749971
145.412683
162.765980
165.152550
145.727992
122.567415
88.978410
69.921613
54.349899
43.095946
41.147470
41.125417
42.164922
41.423440
35.065413
27.756691
21.711588
15.141964
10.082722
6.893873
5.751848
5.876422
5.325675
5.290508
5.136728
6.009936
6.336570
6.357431
7.692575
7.330775
7.731915
7.035732
8.465648
8.399487
9.577870
9.601712
8.705854
9.373426
9.628534
10.020733
9.602904
9.924769
9.748936
10.464787
10.937452
10.983944
9.691715
10.619760
10.129809
11.441708
10.158420
12.241602
12.592673
12.055635
12.156963
13.072491
12.681484
12.743473
13.090968
12.891889
13.276935
14.329553
14.477968
14.409423
16.034842
18.073916
20.047426
21.784902
25.620461
26.162863
30.499697
32.769442
34.362674
34.185648
32.174587
29.948950
29.497743
25.900602
24.188757
21.400452
19.008517
17.393827
16.600490
15.696883
14.364719
14.572740
14.040470
13.875961
14.090538
12.954473
13.479590
13.943911
12.633801
12.679696
12.844801
##ZVALUE=230
83.523989
91.588497
140.127540
218.781829
264.557600
313.113928
321.178436
292.298794
254.480839
188.799500
139.296651
90.194941
70.492625
64.555407
62.045455
65.919757
67.458749
62.251687
52.096844
43.534636
30.258894
22.018552
11.683702
9.239912
5.680919
5.844831
5.980730
6.303787
5.753636
6.716847
7.020831
7.832646
7.391572
7.842779
7.969737
8.556843
8.767843
8.599758
9.210706
9.509921
8.662939
9.932518
9.078979
9.862781
9.770989
9.478927
9.544492
9.344816
10.299683
9.827614
10.208488
10.859966
11.414886
10.457635
11.447668
11.849999
11.903644
12.372732
12.612939
12.675524
13.840795
13.540983
13.338923
14.621615
14.746785
16.614795
17.663836
18.544793
20.434856
24.223924
25.296807
30.133724
28.725863
29.830933
30.905604
29.358864
27.832985
27.518868
24.658442
21.513700
20.426512
20.029545
18.507838
17.016530
15.495420
15.343428
15.529990
14.932752
14.326572
14.557838
14.235973
13.464689
14.452934
13.910532
13.371706
13.937950
##ZVALUE=235
21.588802
23.806691
61.334968
115.085840
208.965540
293.842554
407.283902
474.083424
505.554676
480.549932
399.021506
307.560563
231.174827
140.221715
104.954839
85.665584
83.355904
88.306665
93.514919
89.464784
83.639622
70.558786
51.617622
36.420822
22.193789
14.420748
10.024905
7.325411
6.307960
6.469488
7.062554
6.703734
7.021427
6.863475
7.281899
7.649660
8.143783
7.777810
7.603765
7.803440
7.452965
8.229613
8.519888
8.088946
8.820891
9.053946
8.981824
9.088516
9.241700
9.142756
10.053515
9.656549
9.774566
10.265708
10.832548
11.377931
11.233687
11.538863
11.190772
12.441874
12.224913
13.225675
13.179779
13.051629
13.876557
14.610887
16.519427
17.530918
19.055605
20.907521
22.747517
26.576519
25.423765
28.829575
26.438832
26.447773
25.288463
23.195744
22.429824
21.035671
20.776987
18.986464
17.604828
17.530918
16.623735
16.426444
16.600490
16.019940
16.055703
15.841722
15.529990
15.870929
14.859438
15.026927
15.436411
15.210509
##ZVALUE=240
1.836419
1.848936
6.695986
20.503402
60.532689
117.964745
232.211947
342.720747
500.250459
591.736436
648.420453
623.230934
571.208596
432.380438
321.762562
204.480886
140.106678
99.791884
93.107820
96.641779
105.978847
107.680559
101.083517
92.269778
70.714951
56.510568
37.463903
25.225878
14.673471
10.446906
8.141994
6.322861
5.995631
6.088614
5.644560
6.257892
6.288886
5.921721
6.507635
6.207824
6.346703
7.081628
6.734729
7.049441
7.428527
7.185936
7.297993
7.084608
7.435679
7.780790
7.829666
7.968545
7.622838
8.786917
8.895993
8.809566
9.042621
9.578466
10.187626
9.567738
9.749532
10.905862
10.646582
11.305809
11.725426
12.578964
14.072657
14.476776
16.707778
19.152761
20.440817
22.182465
23.470521
23.816824
24.326444
22.794604
22.257566
22.048950
20.502806
19.203424
18.070936
17.588735
18.135905
16.658902
16.660690
15.564561
16.347766
14.536977
15.754700
15.538931
15.638471
14.995933
15.041828
14.967918
15.037656
14.499426
##ZVALUE=245
1.386404
1.247525
1.310706
1.602769
3.777742
13.870597
46.580434
101.408958
220.505595
339.486003
525.000691
648.951530
728.380680
753.406882
700.133443
568.384528
447.935462
289.778709
196.604729
117.727518
92.438459
88.861585
100.260973
111.019611
114.893913
108.794570
96.733570
80.152750
58.426857
42.301416
30.415654
17.454624
11.085868
7.401705
6.355643
6.204844
5.921721
5.456805
5.405545
5.947948
5.632639
6.155968
6.291866
6.277561
6.151795
6.525517
6.911755
6.790757
6.191730
6.365776
6.366968
6.744862
7.002950
7.383823
7.043481
6.908774
7.528663
7.645488
7.420778
7.871985
8.247495
8.647442
8.573532
9.636879
9.879470
10.801554
11.625886
12.654662
14.334917
15.546679
16.793609
19.062757
19.864440
20.673871
20.279884
20.141602
19.568801
18.754601
17.874837
16.884804
16.537905
15.921593
15.017986
15.214682
14.551878
14.972687
14.493465
14.126897
14.196634
13.893843
14.418960
13.940930
13.997555
13.735890
14.142990
13.572574
##ZVALUE=250
1.132488
1.033545
1.149774
1.190901
1.296997
1.545548
1.832843
8.777976
27.682781
82.150698
159.484744
319.895744
466.500521
662.223697
774.129033
840.721726
824.599862
710.422993
584.142804
391.180515
262.117982
173.396468
100.335479
80.750585
87.316632
101.391673
113.408566
118.775964
112.526417
100.839734
79.302788
62.934756
46.052933
28.328896
18.080473
10.570884
7.390976
5.934834
5.645752
5.692840
5.820990
5.860925
5.591512
5.627871
5.651712
6.192923
5.930662
5.950928
6.058812
6.180406
6.173849
6.237626
6.618500
6.501675
6.914735
6.839633
6.611943
7.034540
7.139444
7.059574
7.539988
7.530451
7.786751
7.969737
8.269548
9.096861
10.421872
11.110902
12.450814
14.264584
14.641881
16.166568
17.248988
17.757416
17.956495
17.680526
17.112494
16.024709
15.187860
14.770627
13.889670
13.728738
13.819933
13.479590
13.229847
12.898445
13.170838
12.515783
13.083816
11.961460
11.942983
12.657642
12.220740
12.407899
12.468696
12.817979
##ZVALUE=255
0.953674
1.168847
1.079440
1.134872
0.882745
1.293421
1.181960
1.402497
1.499653
3.800988
20.346642
53.729415
116.245747
258.757472
411.856771
639.062524
793.873668
935.886502
981.577635
907.675624
782.882571
609.958768
372.936726
233.832598
120.078921
82.838535
73.427558
83.799958
102.592707
113.798976
119.676590
116.593838
106.822848
85.277557
67.363977
43.892860
30.555725
18.167496
10.953546
7.286668
5.741715
5.391836
5.654693
5.892515
5.348921
5.849600
5.792975
5.760789
5.734563
6.155968
5.971789
5.758405
6.266832
6.312728
6.581545
6.433725
6.628633
6.778836
6.669760
6.857514
6.668568
7.572770
7.084608
7.444620
7.592440
8.333921
8.863807
9.930730
11.313558
12.282729
13.150573
13.966560
14.790893
15.082955
15.228987
14.677644
13.835430
13.499856
13.162494
12.506843
12.315512
12.309551
11.377931
12.106895
12.023449
11.427999
11.597872
11.395812
11.240840
11.868477
11.502504
11.343956
10.720491
10.782480
11.186600
11.452436
##ZVALUE=260
1.117587
0.870824
1.011491
0.997782
0.915527
1.071692
0.957847
1.230836
1.509786
1.565814
1.530647
2.156496
6.330609
32.271743
77.509880
193.472505
326.306820
548.353791
737.879872
955.516696
1015.795469
1015.795469
927.161574
752.907991
494.883657
334.366560
183.634758
109.267831
67.658424
65.139532
77.421665
99.077821
114.308000
121.646523
120.651722
106.210709
89.773536
65.689683
48.269629
30.477643
20.242929
11.514425
8.065701
6.239414
6.088614
5.855560
6.084442
5.879998
6.258488
6.081462
6.267428
6.068945
6.020665
6.363988
6.519556
6.348491
6.367564
6.370544
6.486773
6.842613
6.545782
6.531477
6.762743
6.782413
7.551908
7.642508
8.647442
9.274483
10.135770
10.983944
11.547804
12.620687
12.953877
13.052821
13.325810
13.481975
12.812614
12.253523
11.431575
11.671782
11.277795
10.794997
10.241866
10.688901
10.463595
10.433793
10.641813
10.626912
10.560751
10.096431
10.076761
10.136962
10.337830
10.493994
9.648800
10.431409
##ZVALUE=265
0.961423
0.888705
1.009703
0.845790
0.995994
0.959635
1.025796
1.076460
1.289845
1.178980
1.340508
1.506805
1.420975
1.753569
3.324747
19.986629
54.561496
144.876838
264.419913
504.124761
716.210008
926.406980
1015.792489
1015.792489
1015.792489
921.226740
675.181746
471.837521
253.440738
148.431659
88.593960
56.613684
62.056780
84.995627
101.915002
118.126869
123.294592
119.571686
109.030604
87.800622
68.791509
47.125816
32.127500
18.172860
12.351871
7.767677
6.578565
6.344914
6.724000
6.487966
6.742477
6.418824
6.818771
6.717443
6.710887
6.948709
7.008910
6.895661
6.675720
6.739497
6.901622
6.791949
6.938577
7.092953
7.571578
8.012652
8.216500
9.270906
9.940863
10.519624
11.196733
11.695623
12.550950
12.909770
12.313724
12.143850
11.959672
11.048913
11.114478
10.621548
9.727478
10.181665
9.791851
9.813905
9.387732
9.478927
9.538531
9.628534
8.877516
9.266734
9.258986
8.996725
9.328723
8.931756
9.256601
9.346604
##ZVALUE=270
0.823736
0.820756
0.890493
0.785589
0.930429
0.954866
0.732541
0.922680
1.153946
1.161695
0.977516
1.030564
1.335740
1.423955
1.464486
1.738667
2.252460
7.041693
23.980737
90.741515
191.978812
415.141582
630.311966
929.802656
1015.794873
1015.794873
1015.794873
1015.794873
912.045836
624.969006
422.104001
208.917856
114.459991
56.804419
46.249628
62.590837
79.335570
103.818774
115.041733
124.128461
121.315718
108.189583
92.133880
67.382455
50.661564
30.776858
21.093488
12.549758
9.560585
7.235408
6.606579
6.842613
6.781816
6.843805
6.958842
7.161498
7.000566
7.106662
7.107854
7.375479
7.252693
7.041693
7.283688
7.078648
7.390976
7.767677
7.927418
8.984804
9.704828
9.851456
10.876656
11.488795
11.678934
11.657476
11.338592
10.803938
10.807514
10.515451
10.050535
9.739995
9.062886
9.092689
8.984804
8.616447
8.823872
8.683801
8.633733
8.703470
8.371472
8.559823
8.604527
8.560419
8.558631
8.473992
8.587837
8.543730
##ZVALUE=275
0.720620
0.737906
0.824928
0.804663
0.851750
0.900626
0.624657
0.769496
0.923872
0.846982
0.809431
0.859499
1.223683
1.114607
1.165867
1.216531
1.317859
1.431704
1.689792
3.855824
15.806556
50.185919
157.641768
308.595896
589.095950
819.591880
1015.763879
1015.763879
1015.763879
1015.763879
1015.763879
861.680508
608.538985
319.226980
177.899003
74.239969
44.147968
43.110847
57.354569
79.491735
95.797777
113.898516
120.106936
118.756890
109.217763
88.328719
71.772933
50.938725
36.355853
22.269487
15.121698
10.012984
8.078814
7.451773
7.154942
6.953478
7.346869
7.139444
7.215738
7.355809
7.366538
7.545948
7.639527
7.749796
7.596612
8.200407
8.284450
8.808970
9.244680
9.969473
10.578632
11.032820
11.449456
11.049509
11.642575
10.656714
10.477901
9.731650
9.519458
9.102821
8.835793
8.828640
8.994937
8.214712
8.574724
8.506775
8.338690
7.979870
8.306503
8.174777
8.011460
8.450747
8.098483
7.925630
8.222461
8.081794
##ZVALUE=280
0.759959
0.697970
0.814795
0.616908
0.790954
0.866652
0.758767
0.660419
0.974536
0.724792
1.007915
1.040697
1.053810
1.109838
1.079440
1.322627
1.031756
1.299977
1.441836
1.420975
1.638532
1.946688
10.163784
37.790537
128.471851
247.447491
476.833582
720.652938
1015.794873
1015.794873
1015.794873
1015.794873
1015.794873
1015.794873
792.559981
455.907583
266.942978
113.143921
56.208968
33.014417
38.501620
58.236718
75.652599
97.587705
111.186504
119.461417
118.415952
105.861425
92.241764
70.138574
53.639412
34.076571
24.564862
14.630556
10.517836
8.125901
7.637739
7.524490
7.321835
7.180572
7.664561
7.461905
7.634759
7.598996
7.743835
7.817745
8.163452
8.396506
8.991957
9.939671
9.772778
10.279417
10.487437
10.543466
10.107756
9.945631
9.735823
9.632707
9.273887
9.023547
8.660555
8.687973
8.479953
7.990599
8.266568
8.505583
8.029938
8.173585
8.020997
8.121729
7.928610
7.827878
7.681847
7.603765
7.638931
7.779598
##ZVALUE=285
0.886917
0.540614
0.656843
0.701547
0.775456
0.893474
0.659823
0.805855
0.786781
0.832677
0.834465
0.854731
0.748634
1.027584
1.011491
0.889897
0.939965
1.258850
1.240969
1.318455
1.418591
1.343489
1.645684
1.762509
4.748702
18.408895
71.212649
158.734918
363.358855
578.286052
913.023949
1015.794873
1015.794873
1015.794873
1015.794873
1015.794873
986.073613
627.288818
390.781760
178.327560
87.731481
35.028458
26.387572
38.093925
51.812530
75.008869
89.545846
106.913447
114.633441
114.865899
107.593536
91.614723
75.142980
53.615570
38.207769
23.617744
15.752912
10.154843
8.329749
7.366538
7.165670
7.267594
7.378459
7.242560
7.346869
7.470846
7.973909
8.277893
8.737445
9.088516
9.456873
9.644628
9.874701
9.757876
9.683967
9.287000
8.846521
9.098649
8.464456
8.644462
8.355975
8.119941
8.146763
8.078814
8.021593
7.706881
8.024573
8.060932
7.881522
7.629991
7.814765
7.608533
7.760525
7.512569
7.500648
7.562637
##ZVALUE=290
0.808835
0.871420
0.792742
0.764728
0.820756
0.921488
0.815988
0.846982
0.963807
0.775456
0.884533
0.816584
0.947714
0.979900
0.892878
1.030564
0.993609
1.137853
1.027584
1.193881
1.287460
1.314878
1.426935
1.547933
1.654625
1.819730
2.400875
7.104874
39.758682
98.454952
202.741623
445.740819
712.509751
1015.849710
1015.849710
1015.849710
1015.849710
1015.849710
1015.849710
852.357745
567.178726
276.979804
140.962601
52.510500
25.356412
23.883581
32.659769
49.438477
65.266490
86.691976
99.824667
111.576915
112.612844
104.735494
91.958642
70.255995
54.028630
36.350489
24.985671
15.579462
11.053681
8.277893
7.554889
7.201433
7.005930
7.521510
7.466674
7.736683
8.257627
8.786917
8.983612
9.417534
9.404421
9.582639
9.657741
8.985996
9.104609
8.513927
8.667707
8.012652
8.111596
8.040667
8.173585
8.010864
8.189678
7.968545
8.119941
7.954836
7.810593
7.972717
7.868409
7.753968
7.555485
7.792711
7.802844
7.333755
##ZVALUE=295
0.647902
0.626445
0.588894
0.793934
0.637770
0.675917
0.685453
0.659823
0.736713
0.682473
0.697970
0.806451
0.728965
0.796914
0.933409
1.035929
1.065731
0.828505
1.009703
1.048446
1.142621
1.012683
1.130700
1.173615
1.245737
1.393557
1.496673
1.601577
1.950860
3.165603
11.406541
58.472753
145.401955
364.204049
611.198545
990.943909
1015.796661
1015.796661
1015.796661
1015.796661
1015.796661
1015.796661
783.040524
410.313606
216.440558
74.837804
32.905936
17.268658
19.950867
31.396747
43.261647
63.716769
78.345537
95.848441
104.239583
106.914639
100.211501
85.358620
71.207881
50.943494
37.228465
23.052692
16.105771
10.300875
8.285642
7.151961
6.818771
7.288456
7.403493
8.047819
8.412600
8.658767
8.626580
8.769631
8.550882
8.510947
8.234978
8.167624
8.000731
7.796884
7.825494
7.815957
7.833838
7.649660
7.816553
7.624626
7.871985
8.000731
7.669926
7.794499
7.407665
7.464886
7.680655
7.406473
7.520914
7.243752
##ZVALUE=300
0.697970
0.659823
0.732541
0.722408
0.763535
0.688434
0.609756
0.758767
0.721812
0.599623
0.622869
0.726581
0.570416
0.723600
0.788569
0.723600
0.837445
0.836849
0.770688
0.692606
0.960827
0.916719
1.077652
1.088977
1.254678
1.422763
1.364946
1.372695
1.611710
1.638532
1.946688
2.060533
6.508827
25.582910
101.566911
217.260718
478.512645
757.441521
1015.794873
1015.794873
1015.794873
1015.794873
1015.794873
1015.794873
941.509008
617.926717
305.996537
158.925653
54.032803
20.962954
13.312697
17.443895
27.697682
38.108826
56.477785
71.606636
89.955926
98.025799
100.820661
96.297860
83.443522
70.449710
51.661730
38.556457
23.306608
16.285777
10.423660
8.478761
7.555485
7.718801
7.701516
7.887483
8.082986
8.219481
8.022785
7.752776
7.731915
7.464886
7.645488
7.453561
7.536411
7.596612
7.582903
7.442832
7.909536
7.710457
7.560849
7.401705
7.403493
7.518530
7.304549
7.496476
7.419586
7.173419
7.399917
7.152557
##ZVALUE=305
0.620484
0.567436
0.538826
0.742674
0.668764
0.704527
0.693798
0.566840
0.661612
0.722408
0.763535
0.781417
0.616908
0.788569
0.665784
0.780821
0.829697
0.788569
0.778437
0.906587
0.934601
0.780821
0.964999
0.941753
1.026988
1.010895
1.247525
1.085997
1.245737
1.501441
1.498461
1.560450
1.657605
2.075434
3.049970
16.890764
53.774714
177.253485
342.856646
678.956509
980.407000
1015.794873
1015.794873
1015.794873
1015.794873
1015.794873
1015.794873
777.335763
484.895706
217.048526
102.169514
31.297803
13.221502
12.175441
16.058683
25.742650
36.549568
53.995848
68.203807
84.519982
92.548728
95.804930
92.441440
79.867840
66.788793
48.342943
36.426783
23.563504
16.363859
10.997653
8.883476
8.185506
7.791519
7.805824
7.593632
7.503629
7.474422
7.000566
6.953478
7.264614
7.234812
7.318854
7.366538
7.493496
7.527471
7.557869
7.302761
7.294416
7.376671
7.476807
7.144809
7.000566
7.260442
7.148981
7.210970
7.150769
##ZVALUE=310
0.619888
0.574589
0.697970
0.581741
0.659823
0.485778
0.675917
0.531673
0.471473
0.749826
0.687838
0.711679
0.718832
0.666976
0.591874
0.775456
0.691414
0.785589
0.823736
0.689626
0.824928
0.877976
0.778437
0.886917
0.891685
1.082420
1.087785
0.966787
1.132488
1.039505
1.258850
1.402497
1.499653
1.531839
1.709461
1.817942
2.101660
6.777644
25.418997
99.507570
218.888521
495.717525
801.008940
1015.794873
1015.794873
1015.794873
1015.794873
1015.794873
1015.794873
968.070030
665.740967
339.945555
178.722739
61.126947
22.418499
9.455681
10.388494
15.191436
21.053553
33.059716
44.692755
62.329769
74.563622
85.922480
89.861751
87.849498
79.083443
64.962506
51.805973
35.605431
26.312470
16.828775
12.323856
9.071827
7.752776
7.268786
7.181764
7.000566
6.730556
7.023811
6.836653
7.185936
7.112622
7.321835
7.292628
7.262826
7.237792
7.357597
7.435679
7.295609
7.323623
7.034540
7.208586
7.205606
7.120967
6.869435
##ZVALUE=315
0.675917
0.576973
0.590682
0.627637
0.676513
0.702739
0.637770
0.643730
0.604987
0.538826
0.517964
0.655651
0.687838
0.573993
0.777841
0.665784
0.542998
0.661612
0.800490
0.713468
0.867844
0.602603
0.791550
0.844598
0.697970
0.855923
0.848770
0.952482
1.008511
0.952482
0.967979
1.074672
1.169443
1.287460
1.316667
1.480579
1.615882
1.750588
1.807809
3.337860
11.865497
57.516694
148.116946
388.740897
655.009747
1015.794873
1015.794873
1015.794873
1015.794873
1015.794873
1015.794873
1015.794873
883.336663
479.703546
262.243748
94.670653
35.920739
10.909438
8.689761
9.944439
13.151765
20.705462
28.822422
42.983890
55.968761
71.743727
81.184506
85.709691
84.668994
75.034499
64.939857
49.288869
37.231445
23.795962
16.795993
10.738969
8.641481
7.259846
7.006526
6.859899
6.906986
7.017851
6.955862
6.897449
6.938577
6.818771
7.102489
7.138848
6.949902
7.118583
7.170439
7.136464
7.043481
7.011890
6.845593
6.751418
##ZVALUE=320
0.523925
0.599623
0.515580
0.532866
0.341535
0.577569
0.609756
0.596642
0.637770
0.503659
0.610948
0.628829
0.579953
0.685453
0.420809
0.647902
0.573993
0.636578
0.528693
0.746846
0.666976
0.780821
0.902414
0.789762
0.728965
0.784993
0.818968
0.919700
0.865459
0.949502
1.026988
1.065731
1.089573
1.166463
1.053810
1.176000
1.208782
1.362562
1.544952
1.732707
1.792908
2.177954
5.350709
31.666756
89.505911
261.633396
461.232662
821.837783
1015.795469
1015.795469
1015.795469
1015.795469
1015.795469
1015.795469
1008.714437
612.914562
356.688499
152.045488
64.754486
16.519427
8.419752
7.866621
8.775592
12.163520
17.200708
28.124452
37.656426
52.815676
65.300465
77.702999
81.825852
80.241561
73.983669
59.734583
48.279762
33.279657
23.914576
15.824437
11.472702
8.444786
7.616878
6.922483
6.955862
6.868839
6.937981
6.891489
6.888509
6.776452
6.944537
7.062554
6.836653
7.219911
6.907582
6.673932
6.861687
6.912947
##ZVALUE=325
0.526905
0.517964
0.407696
0.702739
0.610948
0.514984
0.524521
0.551939
0.505447
0.669956
0.589490
0.605583
0.677705
0.468493
0.558496
0.545979
0.614524
0.672936
0.692606
0.610948
0.720620
0.548959
0.837445
0.870824
0.633597
0.654459
0.792742
0.811815
0.733733
0.717640
0.830889
0.835657
0.981688
0.969768
0.959635
1.063943
1.178980
1.231432
1.332760
1.362562
1.479983
1.664758
1.840591
2.175570
3.286600
19.840598
58.052540
175.258517
345.614552
707.097650
1009.343863
1015.800834
1015.800834
1015.800834
1015.800834
1015.800834
1015.800834
778.264999
482.568741
215.714574
101.308823
27.578473
10.572672
7.364750
7.618666
9.068847
11.688471
17.668605
25.569797
38.960576
50.058961
63.369870
71.574450
77.426434
75.571537
66.637993
56.988001
43.903589
32.862425
21.757483
15.539527
10.559559
8.814931
7.564425
7.132888
7.284880
6.885529
6.513000
6.619692
6.758571
6.728768
6.778836
6.495714
6.692410
6.624460
6.592870
##ZVALUE=330
0.652671
0.378489
0.629425
0.507832
0.420809
0.505447
0.543594
0.433922
0.508428
0.474453
0.504851
0.515580
0.485778
0.684857
0.565648
0.771880
0.618696
0.444651
0.646710
0.680685
0.601411
0.840425
0.712872
0.688434
0.620484
0.647902
0.789762
0.828505
0.812411
0.834465
0.996590
0.893474
0.934601
0.883937
0.999570
1.099706
0.899434
1.044869
1.066923
1.106858
1.345873
1.383424
1.515746
1.728535
1.810789
2.072453
2.411604
8.420944
29.282570
112.759471
238.911510
534.709692
853.979588
1015.825868
1015.825868
1015.825868
1015.825868
1015.825868
1015.825868
971.512794
654.771924
313.164592
157.686472
51.847696
17.477870
7.853508
7.437468
7.506609
8.599758
12.232661
16.606450
25.047660
34.699440
48.389435
58.184862
68.710446
72.343946
70.329905
64.168572
52.396655
42.326450
29.511452
22.224784
15.567541
11.877418
8.871555
7.479787
6.955862
6.877780
6.561875
6.526709
6.596446
6.785989
6.496906
6.355643
6.581545
##ZVALUE=335
0.571609
0.462532
0.434518
0.393987
0.599623
0.660419
0.489950
0.517964
0.571609
0.569820
0.654459
0.633597
0.671744
0.499487
0.586510
0.596642
0.446439
0.608563
0.611544
0.566840
0.670552
0.751615
0.696778
0.539422
0.560880
0.678897
0.608563
0.678897
0.815988
0.771880
0.769496
0.643730
0.799894
0.815988
0.841618
0.798702
0.935793
0.922680
1.036525
1.112819
1.070499
1.169443
1.259446
1.237988
1.350641
1.648664
1.750588
1.874566
2.172589
3.877878
14.585853
66.715479
156.331658
393.655896
675.417781
1015.794873
1015.794873
1015.794873
1015.794873
1015.794873
1015.794873
1015.794873
825.229883
448.955894
238.947868
79.307556
28.893948
9.383559
7.498860
7.419586
7.739663
8.934736
11.219978
16.511679
22.955537
34.275651
43.262839
55.204630
62.798858
67.238808
66.415668
59.765577
52.089691
41.267872
32.072663
22.399426
16.411543
11.300445
9.055734
7.421970
6.887913
6.313920
6.222725
6.240606
6.320477
6.376505
##ZVALUE=340
0.607967
0.434518
0.527501
0.422597
0.420809
0.537634
0.570416
0.655651
0.580549
0.518560
0.429749
0.523925
0.561476
0.479817
0.460744
0.577569
0.540614
0.462532
0.527501
0.560880
0.593662
0.573993
0.676513
0.570416
0.578761
0.667572
0.812411
0.595450
0.777841
0.595450
0.699759
0.734925
0.832677
0.707507
0.783801
0.892878
0.770688
0.863671
0.870824
1.035929
1.160502
1.041889
1.002550
1.158714
1.183748
0.982881
1.198649
1.390576
1.541972
1.697540
1.901984
2.388954
6.104708
36.425591
101.274848
282.810926
514.455438
917.290449
1015.805006
1015.805006
1015.805006
1015.805006
1015.805006
1015.805006
957.833529
527.615547
297.034979
117.546916
43.814778
11.260509
7.967949
7.327795
7.498860
7.572770
8.251667
10.956526
14.622808
22.218823
30.386448
42.826533
51.481724
60.297847
63.244700
62.222481
58.157444
48.945546
40.906668
29.571652
23.275614
15.571713
11.674762
8.575916
7.241964
6.640553
6.237626
6.212592
##ZVALUE=345
0.466704
0.438690
0.307560
0.550747
0.601411
0.426769
0.431538
0.581741
0.478625
0.356436
0.447631
0.558496
0.647902
0.441670
0.487566
0.281930
0.534654
0.726581
0.579953
0.580549
0.528693
0.629425
0.587702
0.514984
0.739694
0.675917
0.630617
0.596642
0.767708
0.721812
0.693798
0.661612
0.632405
0.831485
0.620484
0.681877
0.812411
0.713468
0.904799
0.994802
0.990629
0.837445
1.015663
0.940561
0.956655
0.986457
1.252890
1.304746
1.322627
1.297593
1.347661
1.484752
1.745820
2.032518
2.974868
19.219518
59.615970
182.120800
354.771614
712.149739
1006.428599
1015.794873
1015.794873
1015.794873
1015.794873
1015.794873
1015.794873
696.959496
406.370759
161.300898
70.482492
19.976497
9.217858
7.814765
7.317662
6.904602
6.899834
7.691979
9.308457
14.275908
19.989610
29.722452
36.990643
47.040582
53.202510
57.855844
58.547854
54.099560
48.233867
38.701892
30.534863
21.146536
15.852451
10.885000
8.462667
7.048845
##ZVALUE=350
0.440478
0.508428
0.404716
0.523925
0.491738
0.593662
0.417829
0.442863
0.526905
0.497699
0.606775
0.412464
0.539422
0.637770
0.431538
0.411868
0.534654
0.470877
0.533462
0.599623
0.622869
0.684857
0.470877
0.608563
0.636578
0.650883
0.780821
0.820756
0.724792
0.456572
0.657439
0.678897
0.673532
0.778437
0.728965
0.744462
0.629425
0.783801
0.739694
0.782609
0.863671
0.830889
0.904799
0.812411
1.003742
1.106858
0.959635
1.045465
1.082420
1.113415
1.234412
1.438856
1.391768
1.447797
1.748800
2.010465
2.413988
8.679628
31.299591
113.188624
236.516595
534.701943
835.161805
1015.795469
1015.795469
1015.795469
1015.795469
1015.795469
1015.795469
830.614567
519.337654
239.562988
106.830597
26.667714
10.543466
7.271767
6.493926
6.279945
6.078482
6.182790
7.032752
9.488463
12.274981
17.605424
23.948550
33.310652
40.706992
48.740506
52.400827
53.898692
50.902963
44.205785
37.341714
28.057694
21.506548
15.241504
##ZVALUE=355
0.401735
0.485778
0.454783
0.477433
0.421405
0.498891
0.425577
0.401735
0.494719
0.491738
0.492930
0.461936
0.500679
0.458956
0.411868
0.455976
0.379682
0.517964
0.456572
0.363588
0.476837
0.506639
0.529885
0.574589
0.475645
0.458956
0.548959
0.575781
0.499487
0.592470
0.640750
0.644922
0.775456
0.661612
0.752807
0.626445
0.681877
0.749826
0.694990
0.783801
0.804663
0.820756
0.872612
0.864863
0.898838
0.767708
0.872612
0.922680
1.042485
0.975728
1.016855
1.198649
1.234412
1.238585
1.483560
1.604557
1.604557
1.849532
2.029538
4.261732
16.099811
72.889924
165.586472
388.966799
665.378571
1015.729904
1015.729904
1015.729904
1015.729904
1015.729904
1015.729904
968.517661
630.846024
284.717679
137.699842
42.969584
14.094710
6.747842
6.234646
6.221533
5.601645
5.679727
5.816817
6.563663
7.905960
10.860562
14.842749
21.662712
27.601719
36.173463
42.403936
47.872663
48.860908
46.171546
42.290688
34.789443
##ZVALUE=360
0.608563
0.612736
0.703931
0.676513
0.632405
0.633597
0.703931
0.630617
0.490546
0.549555
0.490546
0.576973
0.536442
0.490546
0.517964
0.538826
0.621676
0.725985
0.594854
0.576973
0.717640
0.695586
0.566840
0.584722
0.632405
0.799894
0.605583
0.695586
0.651479
0.756979
0.762939
0.767708
0.683665
0.839829
0.945926
0.816584
0.805855
0.929832
0.789762
0.925660
0.750422
0.873804
0.857711
0.998974
0.912547
0.989437
1.062751
1.059771
1.132488
1.152754
1.064539
1.178980
1.355410
1.257658
1.581907
1.589656
1.482964
1.658797
1.907945
2.116561
2.320409
3.232956
7.874966
40.166974
108.905435
302.676558
542.370677
957.483649
1015.849710
1015.849710
1015.849710
1015.849710
1015.849710
1015.849710
857.970715
431.020856
223.986506
77.914596
26.218891
7.820725
6.580949
5.959868
5.719662
5.652905
5.355477
5.525947
5.614758
7.027984
8.728504
12.790561
17.183423
24.594665
30.471683
37.950873
42.439699
44.574738
##ZVALUE=365
0.522733
0.511408
0.455976
0.604987
0.451803
0.597835
0.546575
0.662804
0.504851
0.639558
0.611544
0.538826
0.539422
0.640750
0.455976
0.687838
0.702739
0.623465
0.701547
0.642538
0.735521
0.512600
0.628829
0.682473
0.762939
0.517964
0.717640
0.700951
0.652671
0.584722
0.715852
0.684857
0.806451
0.790954
0.846982
0.744462
0.879765
0.808835
0.883937
0.839829
0.844598
0.859499
0.927448
0.969768
0.907779
0.883937
1.042485
1.104474
0.984669
1.129508
1.158714
0.987649
1.101494
1.205802
1.250505
1.277924
1.412630
1.487732
1.559854
1.698732
1.678467
1.936555
2.144575
2.444983
4.251599
14.849901
69.391727
165.703893
420.075059
722.724795
1015.847921
1015.847921
1015.847921
1015.847921
1015.847921
1015.847921
997.045636
660.851002
294.785500
134.420991
34.982562
11.987686
6.280541
5.865693
5.509853
5.183816
4.969835
4.958510
4.961491
5.194545
6.070733
7.447600
10.678768
14.431477
20.968914
25.717616
##ZVALUE=370
0.558496
0.469685
0.493526
0.593662
0.523925
0.589490
0.454783
0.477433
0.622869
0.490546
0.522733
0.579953
0.547767
0.567436
0.524521
0.571609
0.539422
0.554919
0.662804
0.530481
0.635982
0.521541
0.640750
0.497699
0.513792
0.444651
0.454783
0.573993
0.629425
0.606775
0.615716
0.622869
0.683665
0.666976
0.574589
0.555515
0.775456
0.672936
0.710487
0.813603
0.727773
0.679493
0.823736
0.900626
0.828505
0.833869
0.936985
0.851750
0.908971
0.695586
0.936985
0.882745
0.990629
0.992417
0.990629
1.173615
1.114607
1.211762
1.276731
1.283884
1.355410
1.550913
1.708865
1.751781
1.906753
2.251863
2.752542
10.059476
36.649704
133.586526
278.092027
591.592789
935.095549
1015.794873
1015.794873
1015.794873
1015.794873
1015.794873
1015.794873
767.447948
445.947647
177.145004
74.601769
18.081665
7.252693
5.541444
5.118847
4.634857
4.545450
4.618764
4.306436
4.360676
4.556775
5.146861
6.411672
9.133816
##ZVALUE=375
0.458956
0.472665
0.502467
0.530481
0.532866
0.391603
0.432730
0.435710
0.529885
0.488758
0.437498
0.479817
0.435710
0.512600
0.503659
0.500679
0.440478
0.478625
0.465512
0.618696
0.601411
0.353456
0.467896
0.459552
0.491738
0.440478
0.516772
0.540614
0.554919
0.554919
0.505447
0.506639
0.544786
0.596642
0.508428
0.572801
0.801682
0.618696
0.650883
0.607967
0.493526
0.805855
0.623465
0.784993
0.697970
0.728965
0.593662
0.682473
0.776649
0.677705
0.743866
0.868440
0.908971
0.782609
0.805855
0.962615
0.905991
1.023412
1.026988
1.124740
1.043677
1.210570
1.285672
1.329780
1.544952
1.691580
1.875758
2.310872
2.537966
5.508661
19.190907
83.294511
203.503966
508.288741
848.459601
1015.777588
1015.777588
1015.777588
1015.777588
1015.777588
1015.777588
961.612463
632.596612
315.463543
155.716538
44.790506
14.297962
5.966425
5.089641
4.814863
4.733801
4.392862
4.396439
4.156828
4.020929
4.277825
##ZVALUE=380
0.496507
0.492930
0.446439
0.373721
0.557899
0.462532
0.551939
0.654459
0.550747
0.395775
0.690818
0.602603
0.516772
0.481606
0.383854
0.445843
0.475645
0.426769
0.545979
0.461936
0.565648
0.581741
0.340939
0.565648
0.602603
0.578761
0.483990
0.585914
0.614524
0.560880
0.595450
0.495911
0.481606
0.688434
0.615716
0.617504
0.642538
0.735521
0.531673
0.639558
0.591874
0.670552
0.753999
0.810623
0.670552
0.753999
0.792742
0.679493
0.846982
0.747442
0.830889
0.894666
0.796914
0.798702
0.943542
0.986457
0.935793
0.929832
1.038909
1.014471
1.026988
1.214743
1.147985
1.173615
1.346469
1.485944
1.668930
1.939535
2.265573
2.617836
2.734661
3.687739
9.199977
52.362680
139.904618
373.723507
666.797757
1015.851498
1015.851498
1015.851498
1015.851498
1015.851498
1015.851498
1015.851498
975.020528
530.874729
278.021693
84.563494
27.751923
7.415414
5.586743
5.120635
4.650950
4.533529
4.297495
4.186630
##ZVALUE=385
0.371933
0.329614
0.421405
0.401735
0.273585
0.330806
0.600815
0.406504
0.342727
0.411868
0.375509
0.293851
0.454783
0.474453
0.420809
0.539422
0.531673
0.456572
0.459552
0.476837
0.503659
0.423789
0.388622
0.512600
0.483990
0.543594
0.434518
0.396967
0.503659
0.481606
0.405908
0.434518
0.602603
0.485778
0.601411
0.606775
0.581741
0.436902
0.479817
0.468493
0.655651
0.574589
0.569820
0.559688
0.525713
0.503659
0.540614
0.641942
0.592470
0.561476
0.560880
0.579953
0.785589
0.817776
0.796914
0.839829
0.841618
0.639558
0.720620
0.928640
0.928640
0.880957
0.999570
1.053810
1.087785
1.276731
1.509786
1.677871
1.706481
2.027750
2.027750
2.164841
2.113581
2.207756
4.791617
17.963648
83.714724
206.861496
509.672761
860.797763
1015.794873
1015.794873
1015.794873
1015.794873
1015.794873
1015.794873
1015.794873
735.030770
344.647765
168.972611
50.949454
14.924407
5.044937
4.331470
4.246831
3.960729
##ZVALUE=390
0.302792
0.355840
0.259876
0.319481
0.407696
0.327826
0.261664
0.441670
0.327826
0.404716
0.460744
0.372529
0.333786
0.270605
0.433922
0.281930
0.349879
0.465512
0.341535
0.388622
0.454783
0.373721
0.468493
0.345707
0.508428
0.372529
0.284910
0.339746
0.377893
0.452995
0.482798
0.446439
0.603795
0.412464
0.464916
0.340939
0.543594
0.449419
0.396967
0.572801
0.451803
0.544786
0.467896
0.576973
0.527501
0.480413
0.600815
0.505447
0.562668
0.615716
0.455976
0.785589
0.578761
0.678897
0.742674
0.727773
0.641942
0.778437
0.816584
0.740886
0.696778
0.790954
0.957847
0.805855
0.921488
1.197457
1.305938
1.369715
1.744628
1.771450
1.700521
1.844764
1.713634
1.730919
1.971722
2.061725
2.749562
12.204647
46.561956
174.496770
368.256569
782.420635
1015.719771
1015.719771
1015.719771
1015.719771
1015.719771
1015.719771
1015.719771
966.897011
598.308444
246.209502
107.092857
23.871660
7.529855
4.464984
##ZVALUE=395
0.452995
0.437498
0.339746
0.334978
0.310540
0.434518
0.378489
0.184774
0.419617
0.402927
0.365973
0.519753
0.336766
0.376701
0.377893
0.417829
0.290871
0.425577
0.345707
0.424981
0.500679
0.418425
0.417829
0.539422
0.486970
0.484586
0.457764
0.512600
0.431538
0.496507
0.406504
0.373721
0.422597
0.403523
0.357628
0.542998
0.495911
0.359416
0.545979
0.627637
0.520945
0.505447
0.595450
0.631809
0.574589
0.450611
0.597835
0.585914
0.607967
0.655651
0.633597
0.557899
0.759959
0.612736
0.683665
0.729561
0.768900
0.758767
0.806451
0.852942
0.845790
0.859499
0.952482
1.018643
1.076460
1.319647
1.239777
1.382828
1.517534
1.691580
1.714826
1.564622
1.494884
1.711845
1.575947
1.734495
1.700521
1.997948
2.460480
6.530881
27.305484
115.723610
248.701572
530.954599
855.717659
1015.794873
1015.794873
1015.794873
1015.794873
1015.794873
1015.794873
1015.794873
757.395029
354.020000
173.038840
52.044988
##ZVALUE=400
0.495911
0.333786
0.252724
0.302792
0.324845
0.543594
0.408888
0.464916
0.397563
0.377893
0.438690
0.276566
0.358820
0.614524
0.539422
0.454783
0.531673
0.369549
0.313520
0.385642
0.527501
0.274777
0.427961
0.404716
0.577569
0.527501
0.393987
0.423789
0.408888
0.400543
0.404716
0.433922
0.507832
0.486970
0.475645
0.467896
0.493526
0.481606
0.602603
0.626445
0.519753
0.595450
0.650883
0.620484
0.480413
0.562668
0.483990
0.615716
0.625849
0.784993
0.598431
0.619888
0.773668
0.674725
0.729561
0.695586
0.586510
0.628829
0.708699
0.689626
0.721812
0.726581
0.803471
0.956655
0.910759
1.067519
1.146793
1.295805
1.404881
1.446605
1.564622
1.535416
1.449585
1.433492
1.431704
1.599789
1.560450
1.667738
1.624823
1.984835
2.223849
3.506541
12.615919
56.912899
142.998695
372.190475
655.893683
1015.794873
1015.794873
1015.794873
1015.794873
1015.794873
1015.794873
1015.794873
953.107476
519.181490
##END
