##TITLE=KDZ0152
##FORMAT=SPECTACLE-ASCII V-1.2
##DATA TYPE=ULTRAVIOLET SPECTRUM
##SECOND TYPE=ULTRAVIOLET SPECTRUM
##DATE=05/24/18
##TIME=18:49:12
##SPECTROMETER/DATA SYSTEM=SPECTACLE
##XUNITS=NM EM
##YUNITS=ENERGY
##YFACTOR=1
##FIRSTX=220
##LASTX=410
##NPOINTS=96
##3DDATA=Equidistant
##ZUNITS=NM EX
##FIRSTZ=210
##LASTZ=400
##ZPOINTS=39
##XYDATA=(Y..Y)
##ZVALUE=210
5.186796
6.457567
5.350709
4.612803
5.270839
5.652905
5.144477
4.656911
5.230904
4.906654
4.404783
4.708767
4.245639
4.719496
5.837679
4.759431
6.323457
5.525947
6.364584
6.889701
6.920695
7.487535
7.647872
8.591413
9.422898
8.822680
10.327697
10.991693
10.003448
9.696484
10.272861
10.526776
11.680722
11.773705
11.014938
11.933446
12.570620
13.433695
13.483763
13.538599
13.289452
14.618635
14.425516
15.679598
15.599728
15.405416
15.992522
16.848445
17.502904
16.969442
17.005801
16.881824
18.334985
16.752481
17.943978
19.950867
18.730760
18.536448
17.775893
17.856956
20.601749
19.494891
20.024776
22.525787
21.657944
26.840568
30.738711
35.502911
42.665601
49.288869
56.887865
63.739419
73.112845
77.727437
80.062747
80.644488
81.283450
74.582696
69.028735
57.260990
49.975514
42.182803
37.239790
32.400489
25.663972
21.459460
20.887852
18.815994
18.236637
19.785762
18.334985
18.907785
21.768808
23.189783
21.459460
24.805665
##ZVALUE=215
24.823546
24.840832
20.525455
16.276836
13.345480
11.358857
12.302995
11.372566
11.367798
11.339784
8.355975
9.041429
7.490516
5.435944
5.342960
4.801750
4.735589
4.994869
5.592704
5.904436
6.218553
6.577969
6.784797
5.950928
6.876588
7.154942
8.006692
8.594990
8.938909
8.733869
8.220673
10.177493
9.029508
8.498430
9.278655
10.769963
10.764599
10.319948
11.048913
10.938644
10.810494
11.485815
11.963844
13.210773
12.687445
13.157725
14.268756
12.086630
13.229847
13.549924
13.406873
14.402866
13.133883
15.126467
14.304519
14.000535
15.593767
15.704632
14.278889
14.352798
14.583468
16.719699
15.413761
16.670823
17.394423
17.831922
20.911694
26.176572
29.565692
33.258796
37.700534
43.892860
45.143962
50.623417
52.801967
49.605966
48.751831
47.810674
41.233897
36.286712
32.395720
26.679635
24.146438
20.724535
20.067692
17.340779
15.722513
15.133619
15.152693
15.354753
14.802814
14.460683
14.570951
13.040900
14.570951
14.209747
##ZVALUE=220
77.156425
74.671507
73.795915
66.201687
53.365827
42.480826
33.844709
24.247766
23.144484
22.447705
23.168921
22.850633
21.998882
18.503666
15.039444
11.737943
7.923841
6.552935
6.009936
4.708767
5.301833
4.769564
5.200505
5.525947
6.945729
6.516576
6.487966
6.503463
7.354617
8.231997
7.092953
7.524490
8.186698
7.260442
8.477569
7.794499
8.451939
8.885860
8.254647
8.573532
8.942485
9.523630
9.020567
9.943843
9.797812
9.103417
9.371638
10.389686
10.588765
10.593534
10.153651
10.802746
10.557771
11.249781
11.498928
11.240840
11.443496
11.095405
11.229515
11.839867
12.643933
11.533499
12.011528
11.691451
13.061762
14.436841
16.267896
19.644499
21.143556
24.485588
27.364492
31.877756
34.459829
33.864975
36.218762
35.614967
34.140944
33.128858
29.395819
26.301742
21.876693
19.223690
17.012954
15.648603
15.413761
12.440681
13.252497
12.581944
12.474656
11.472702
10.335445
11.293888
10.009408
10.433793
11.017919
11.552572
##ZVALUE=225
116.761923
117.496848
141.817927
159.761906
164.039731
148.622990
127.116442
95.124841
71.155429
58.083534
42.272806
40.074587
40.367842
41.352510
39.387941
36.528707
27.463436
21.543503
17.054677
9.896755
8.252859
6.119609
5.397797
5.768538
5.195737
6.399751
5.935431
6.293654
6.518960
6.916523
6.932616
6.282926
7.788539
7.816553
7.917881
8.112788
7.876754
7.846951
8.095503
8.391738
8.753538
8.967519
9.408593
8.972883
8.933544
10.009408
8.989573
8.857846
9.141564
10.885596
10.361671
10.061860
9.996891
9.962916
10.387897
10.256767
10.771751
10.669827
9.482503
10.443926
9.937882
10.833740
10.664463
10.901690
12.257695
13.261437
14.581680
17.483830
18.906593
22.747517
24.854541
27.054548
28.668642
29.693842
29.882789
29.568672
28.689504
24.724603
22.260547
21.549463
18.629432
16.212463
13.452768
14.173985
13.018847
12.520552
11.900663
11.002421
11.618733
11.011958
10.939837
11.011958
10.209680
9.667873
9.877682
10.432601
##ZVALUE=230
92.523694
101.802945
157.481432
243.592858
298.189521
349.932909
355.919003
327.716470
279.848576
220.815539
140.913725
96.931458
70.949793
63.575506
62.921643
68.673491
67.073703
63.143969
52.570701
42.996407
32.820702
18.631816
13.101697
8.430481
6.580949
6.265640
5.787611
6.001592
5.486608
5.923510
6.304979
6.463528
5.883574
7.165670
6.867647
7.684827
7.533431
7.639527
7.623434
7.885695
9.171963
8.755922
9.688735
8.553863
8.847713
8.498430
9.133816
9.308457
8.964539
9.137988
9.580851
9.661913
9.587407
8.502603
9.549856
9.563565
9.849668
10.362864
10.464787
10.653734
10.714531
10.849833
10.624528
11.565685
11.173487
13.104677
13.765693
16.147494
18.967986
20.404458
24.009943
25.895834
28.103590
27.217865
26.908517
26.295781
26.126504
22.393465
20.918846
18.605590
17.578602
14.584661
14.065504
12.656450
12.034774
11.241436
11.762977
11.497736
11.186600
10.810494
10.730624
10.610819
10.942817
9.948611
9.669662
10.696650
##ZVALUE=235
22.240877
26.917458
57.743788
137.081742
222.265720
353.024006
442.889929
542.450547
572.346449
527.883768
450.052619
350.512862
225.971937
162.441730
104.956627
86.447001
85.824728
88.569522
92.902780
92.957616
80.795884
67.406893
48.070550
33.909678
21.649599
15.106797
9.601712
6.684661
6.411672
6.058812
6.208420
6.004572
6.410480
5.960464
6.204844
6.319880
7.509589
7.483959
7.403493
6.949902
7.422566
7.960796
8.002520
7.749796
7.547736
8.047819
8.302927
8.476973
8.019805
8.422732
8.652806
8.843541
8.860826
8.739829
8.958578
8.670688
9.301901
9.240508
9.244680
9.134412
8.933544
9.896755
9.607673
10.566711
10.631680
12.264848
12.582541
13.958812
15.166998
18.789768
20.819902
22.549629
23.365617
23.840666
24.413466
23.214817
22.256970
19.953847
18.254519
17.190576
14.519691
13.814569
13.525486
12.293458
11.537671
10.924935
11.146665
11.332631
10.623932
10.502934
11.119843
10.313988
10.228753
11.214614
10.889769
10.651946
##ZVALUE=240
1.545548
1.775622
7.380843
21.491647
64.408779
119.469762
237.360597
361.585617
528.042912
621.421933
681.816936
659.065843
594.073534
456.048846
339.360833
205.296874
143.940449
102.292895
92.766881
95.195770
104.755759
108.052492
101.740956
91.135502
69.269538
54.090619
37.903786
25.128722
14.384985
9.823442
7.162690
5.645752
5.573630
5.536675
5.488992
5.784631
6.619692
5.821586
6.549954
6.071925
6.347895
6.789565
6.615520
6.157756
6.577969
6.310940
6.469488
6.523728
6.545782
6.645918
6.831884
7.231832
7.285476
6.887913
7.839799
7.315874
7.339716
7.772446
7.527471
7.362962
8.265972
8.048415
8.243918
8.643866
8.724928
10.014772
11.599660
12.087822
13.001561
15.000701
16.589761
19.254684
19.993782
19.696951
19.490719
19.675493
17.353892
17.197728
15.811920
13.603568
12.964606
12.109876
11.761785
10.738969
10.358691
9.785891
10.351539
10.214448
10.099411
9.893775
10.080934
8.781552
9.457469
9.265542
9.454489
9.407997
##ZVALUE=245
1.135468
1.163483
1.352429
1.444817
4.318953
12.783408
45.425892
99.200606
226.721764
346.785784
544.187427
666.731596
757.646561
780.262947
735.671520
588.593483
466.586947
307.765603
209.190845
122.431517
94.157457
89.541674
101.723671
111.243725
114.327669
108.565688
93.176961
79.385638
56.909919
42.888522
29.774904
17.071962
11.242628
7.416606
6.038547
6.129742
5.522966
5.422831
5.631447
5.934834
5.835891
5.243421
5.703568
5.627871
5.767941
5.576611
5.860925
5.767941
5.831718
5.697608
5.897880
5.835891
5.958676
6.237626
6.203651
6.455779
6.615520
6.614923
6.811619
7.338524
6.896853
6.667972
7.171631
7.399917
7.949471
8.436441
8.718967
10.554790
11.824965
13.677478
14.984608
16.452670
16.709566
17.475486
17.027855
16.765594
15.626550
14.231801
14.121532
12.169480
11.403561
10.811687
10.408759
9.710789
9.950995
9.481907
8.852482
8.296967
9.335876
8.479953
8.809566
8.921623
8.944869
8.142591
8.033514
8.561611
##ZVALUE=250
0.976920
0.868440
1.139641
1.236796
1.088977
1.337528
1.821518
6.568432
34.246445
75.300932
190.948844
315.408707
465.852618
664.260983
786.983967
861.942768
845.672488
732.642412
614.708662
411.920547
275.900960
174.086690
101.177692
82.291961
88.037848
102.863908
111.525655
117.282867
112.186670
98.741651
84.730983
62.040687
45.115948
27.655959
17.872453
9.737611
7.106662
5.894899
5.513430
5.763769
5.029440
5.236864
5.488992
5.514622
5.384684
5.432963
5.231500
5.477667
5.159974
5.281568
5.317926
5.700588
5.804896
5.630851
5.685687
5.848408
5.812645
5.925894
5.659461
6.266832
6.052852
6.056428
6.717443
6.322861
7.008910
7.380843
8.393526
9.791851
10.816455
12.097955
13.234615
13.351440
14.903545
14.642477
14.512539
13.915896
12.925863
12.007952
11.034608
10.242462
9.857416
8.915663
8.564591
8.151531
8.645654
8.308887
8.262992
7.587671
7.625818
7.693768
7.726550
7.743835
8.093715
7.969737
7.246733
7.608533
##ZVALUE=255
0.824928
0.748634
0.934601
0.993609
0.760555
1.024604
1.211762
1.174808
1.274943
3.731847
19.826889
55.651665
117.850900
261.407495
403.109789
622.799993
777.318478
909.541845
938.569903
878.463984
748.196840
588.419437
363.560915
229.073763
118.367672
81.988573
72.889924
84.328651
103.146434
112.710595
120.354891
115.955472
105.296969
83.411932
64.700842
42.288899
29.629469
16.577840
10.566711
5.919933
5.037785
4.490614
4.730821
4.501939
4.484653
4.545450
4.515648
4.286766
4.652739
4.592538
4.765987
4.393458
4.516840
4.654527
4.866719
4.488826
4.769564
4.501939
4.418492
4.536510
4.747510
4.945993
4.821420
5.006790
5.502701
5.662441
6.189942
7.584691
7.763505
8.460879
9.397864
10.248423
10.900497
10.850430
10.546446
10.323524
9.615421
8.965731
8.380413
7.545948
7.297993
7.140636
6.574988
6.859899
6.493926
6.661415
6.444454
6.137490
6.597638
6.599426
6.109476
6.413460
6.311536
6.719828
6.573796
6.438494
##ZVALUE=260
0.268817
0.312924
0.447631
0.573993
0.439882
0.549555
0.557899
0.727773
0.552535
0.821948
0.950694
1.909733
7.330775
35.490990
81.391931
198.508501
328.520536
556.115508
735.594034
950.091481
1015.338898
1015.338898
920.078754
753.569603
494.214892
331.588984
183.039904
107.872486
65.449476
65.315962
82.728863
99.615455
113.464594
122.353435
119.839907
104.767680
87.655783
64.441562
46.663880
28.890967
17.949939
9.555817
6.132722
4.274845
3.993511
3.792644
3.669858
3.693700
3.922582
3.587604
3.698468
4.144907
3.827810
3.893971
3.670454
3.718734
3.839731
3.582835
3.607869
3.846884
3.645420
3.725886
3.716946
4.182458
4.102588
4.583597
4.366636
5.564690
6.270409
7.301569
7.725954
8.221865
8.753538
8.660555
8.251667
7.927418
7.536411
7.343888
7.022619
6.802678
5.738735
5.732775
5.436540
5.403757
5.167723
5.574822
5.392432
5.590916
5.184412
5.227923
5.502701
5.552769
5.350709
5.533695
5.462766
5.366802
##ZVALUE=265
0.499487
0.428557
0.481606
0.521541
0.664592
0.863671
0.863671
0.678897
0.660419
0.889897
0.791550
1.165867
1.159906
1.420975
3.783703
21.065474
56.575537
150.846839
270.370841
512.493849
720.843673
911.631584
1015.546918
1015.546918
1015.546918
914.084911
663.216710
465.895534
248.999000
145.333409
75.033903
55.724978
64.215660
82.381964
103.647709
116.846561
122.211576
119.180679
103.674531
87.779760
64.816475
47.328472
28.408766
18.136501
9.339452
6.224513
4.264712
3.980994
3.556609
3.740788
4.069805
3.890991
3.705621
3.699660
3.799796
3.606677
3.780723
3.784895
3.667474
3.615618
3.618598
3.574491
3.570914
3.717542
3.804564
4.085898
4.631877
4.904866
6.222725
6.810427
7.195473
7.697940
7.890463
8.250475
7.667542
7.835627
7.321835
6.792545
6.139874
5.569458
5.248785
5.405545
5.362630
4.977584
4.708767
4.802942
5.004406
4.797578
5.191565
5.038977
5.049706
4.917979
4.944801
4.975796
5.193949
4.960895
##ZVALUE=270
0.720620
0.578761
0.763535
0.677705
0.794530
0.847578
0.753999
0.704527
0.946522
0.752807
0.988841
0.943542
0.969768
1.071692
1.252890
1.325607
1.712441
8.412004
28.441548
99.967718
205.087662
364.957452
654.401779
889.487863
1015.696526
1015.696526
1015.696526
1015.696526
860.046744
646.804571
447.472930
227.435827
121.855736
55.930614
46.847463
60.774684
78.358650
101.080537
114.103556
121.899843
120.010972
106.357932
90.481639
66.981912
48.060417
28.015971
18.657446
10.394454
6.989837
4.887581
4.137754
3.950596
3.826618
3.994703
3.830791
4.136562
3.737807
3.847480
3.869534
3.942847
3.802776
3.704429
3.516674
3.857613
4.208684
4.016757
4.486442
5.329847
5.558729
6.603599
6.792545
7.203817
7.621646
7.601976
7.304549
7.103682
6.493926
6.396770
5.883574
5.139709
5.033612
4.758835
4.655719
4.790425
4.559755
4.499555
4.688501
4.781485
4.621744
4.714727
4.772544
4.502535
4.638433
4.656911
4.840493
4.683733
##ZVALUE=275
0.587702
0.634789
0.610948
0.719428
0.824928
0.821948
0.766516
0.808835
0.653863
0.734925
0.760555
0.866652
0.800490
0.920892
0.879765
1.088977
1.143813
1.429915
1.551509
2.776980
17.253757
54.714680
169.915557
312.764645
587.796569
816.761851
1015.697718
1015.697718
1015.697718
1015.697718
1015.697718
835.523009
589.644909
303.873420
169.043541
70.650578
41.711926
41.944981
55.159926
78.717470
94.338655
112.304688
118.997693
115.477443
106.974840
85.742474
68.770647
47.327876
33.024549
19.537807
11.957884
6.805658
5.221963
3.984571
3.764629
3.504753
3.579855
3.422499
3.634691
3.598928
3.660917
3.586411
3.867745
3.422499
3.488660
4.000664
4.020929
4.277825
5.233884
5.678535
6.095767
6.661415
6.921887
6.685853
6.673932
6.487966
5.880594
5.589724
5.394816
4.961491
4.652739
4.493594
4.413724
4.108548
4.269481
4.117489
4.087687
4.076958
4.126430
3.840923
4.247427
4.234910
4.154444
4.119873
4.173517
4.174709
##ZVALUE=280
0.652671
0.462532
0.535846
0.476837
0.661612
0.657439
0.562668
0.581741
0.581741
0.734925
0.529885
0.769496
0.599623
0.832677
0.886917
0.949502
0.754595
1.090765
1.273751
1.156926
1.291633
2.045631
8.714795
32.822490
115.975738
222.919583
439.710617
665.330887
980.993509
1015.663743
1015.663743
1015.663743
1015.663743
990.464687
672.063828
441.440940
215.879679
110.879540
44.123530
30.634999
38.812757
53.392649
76.061487
91.815591
109.594464
114.967823
113.663673
105.104446
86.792707
69.541931
46.424866
32.460690
18.736720
12.090802
6.622672
4.684925
3.759861
3.779531
3.192425
3.301501
3.584623
3.270507
3.614426
3.678799
3.829598
3.917813
3.889799
4.464984
4.873872
5.149841
5.663633
6.032586
5.722642
6.008744
5.901456
5.583763
5.056858
4.984736
4.660487
4.495978
4.199743
4.265904
4.064441
4.121661
3.953576
3.850460
3.944635
3.875494
3.937483
3.888607
3.935695
3.863573
4.091859
3.905892
4.009604
3.764629
##ZVALUE=285
0.442863
0.646710
0.514984
0.516772
0.458956
0.523925
0.595450
0.748634
0.580549
0.679493
0.724792
0.692606
0.802875
0.809431
0.708699
0.915527
0.895858
0.835657
0.931621
1.079440
1.199841
1.237988
1.412630
1.409650
4.401803
16.142726
63.586831
140.375495
320.873857
531.949997
781.131983
1015.692949
1015.692949
1015.692949
1015.692949
1015.692949
945.847631
588.544607
361.410975
165.478587
79.892874
31.011701
23.987889
35.227537
49.192905
71.868896
88.237524
104.985833
112.785697
112.913847
104.053617
88.071823
71.969628
49.314499
35.062432
19.639730
12.457967
7.008910
4.986525
4.005432
3.813505
3.634691
3.486872
3.603697
3.752708
3.796816
4.001856
4.267693
4.667640
5.262494
5.554557
5.486608
5.928874
5.643964
5.394816
5.235672
5.227923
4.684925
4.437566
4.288554
4.007816
3.940463
3.930926
3.832579
3.857613
3.832579
3.919601
3.846884
3.751516
3.565550
3.651977
3.679991
3.632903
3.663898
3.709793
3.555417
##ZVALUE=290
0.469685
0.473857
0.536442
0.453591
0.552535
0.440478
0.423789
0.529885
0.651479
0.628829
0.666976
0.706911
0.640750
0.731945
0.609756
0.797510
0.902414
0.878572
0.761747
1.115799
0.977516
1.079440
1.126528
1.243949
1.427531
1.595616
2.283454
6.733537
36.133528
90.929866
165.026784
415.916443
672.440529
1015.696526
1015.696526
1015.696526
1015.696526
1015.696526
1015.696526
781.225562
517.699718
255.476832
128.855705
43.717623
21.794438
22.528768
31.629801
47.894716
62.824488
83.866715
97.190738
108.541846
109.302998
100.656748
89.256763
67.094564
51.164627
32.090545
22.224784
12.121797
7.682443
4.947782
4.353523
3.724694
3.459454
3.701448
4.072785
4.166961
4.478693
4.904866
5.313754
5.432963
5.409718
5.441904
5.166531
5.100965
4.716516
4.280806
3.988743
3.923774
3.895760
3.709793
3.688931
3.641844
3.724694
3.758669
3.680587
3.766418
3.697872
3.612638
3.591776
3.614426
3.524423
3.579855
3.674626
3.544688
##ZVALUE=295
0.468493
0.378489
0.562668
0.456572
0.457764
0.477433
0.558496
0.586510
0.532866
0.711679
0.672936
0.639558
0.562668
0.704527
0.565648
0.686646
0.756979
0.790954
0.688434
0.921488
0.854731
0.790954
1.093745
1.128912
1.073480
1.199841
1.255870
1.587868
1.657605
2.785921
10.414720
53.117871
131.534934
337.388515
571.587682
966.938734
1015.696526
1015.696526
1015.696526
1015.696526
1015.696526
973.901749
687.258840
363.392830
193.081498
68.291426
28.880835
15.744567
18.823743
29.907823
42.032599
61.492920
76.267719
94.490647
102.929473
104.755759
97.894669
83.150864
68.388581
48.180819
34.812689
20.502806
13.279915
7.784963
5.380511
4.370809
4.186630
4.125834
4.420877
4.814863
5.103946
5.155802
5.096793
5.132556
5.237460
4.719496
4.642606
4.173517
4.122853
3.798604
3.820658
3.766418
3.697872
3.635883
3.675818
3.782511
3.705621
3.563762
3.559589
3.493428
3.492832
3.386736
3.549457
3.282428
3.647804
3.499985
##ZVALUE=300
0.403523
0.405908
0.414848
0.586510
0.478625
0.384450
0.487566
0.464916
0.482798
0.571609
0.467896
0.452995
0.647902
0.583529
0.664592
0.690818
0.734925
0.550747
0.747442
0.767708
0.724792
0.568628
0.849962
0.877976
0.869632
1.143813
1.143813
1.286864
1.322627
1.532435
1.597404
1.839995
6.058812
25.523901
100.586414
208.848715
458.510518
734.944940
1015.697718
1015.697718
1015.697718
1015.697718
1015.697718
1015.697718
852.803588
565.108657
288.898945
153.290629
49.892664
20.144582
12.983680
16.636848
26.480556
37.018657
54.809451
70.098639
87.270737
96.642971
99.511743
95.613599
82.747936
67.643523
48.512816
35.572648
21.789670
14.154911
8.274913
5.886555
5.092621
4.681945
5.129576
5.114675
5.112886
5.004406
4.955530
4.637837
4.367828
4.175901
3.830791
3.680587
3.810525
3.684759
3.749728
3.724694
3.579855
3.799796
3.646612
3.626943
3.543496
3.436804
3.238916
3.447533
3.376603
3.253818
3.336668
3.225803
##ZVALUE=305
0.340939
0.384450
0.524521
0.481606
0.513792
0.497699
0.399947
0.410676
0.428557
0.400543
0.545979
0.495911
0.486970
0.585914
0.511408
0.627637
0.597835
0.575781
0.575781
0.795722
0.714660
0.829697
0.744462
0.726581
0.885725
0.870824
0.978708
0.911951
1.068711
1.191497
1.290441
1.332760
1.492500
1.767874
2.691746
16.397834
50.828457
164.505839
318.364501
636.068583
938.906670
1015.696526
1015.696526
1015.696526
1015.696526
1015.696526
1015.696526
728.521943
459.986925
207.328796
98.873973
28.516650
12.431741
11.614561
15.631914
25.122762
35.583973
52.399635
66.290498
82.607865
91.403723
94.773769
89.978576
78.383684
66.548586
47.647953
34.521818
21.065474
13.758540
8.602738
6.697774
5.470514
5.241632
4.999638
4.686713
4.401803
4.124641
3.885627
3.661513
3.737807
3.745556
3.647804
3.507733
3.805757
3.741980
3.730655
3.624558
3.494620
3.432631
3.467798
3.485680
3.487468
3.411770
3.297925
3.199577
3.074408
##ZVALUE=310
0.490546
0.529885
0.372529
0.308752
0.302792
0.453591
0.393987
0.489950
0.439882
0.237823
0.539422
0.489950
0.565648
0.444651
0.438690
0.404716
0.602603
0.751615
0.552535
0.625849
0.663996
0.706911
0.573993
0.794530
0.858903
0.801682
0.777841
0.769496
1.029968
0.909567
0.928640
1.035929
1.269579
1.357794
1.520514
1.661777
1.972914
6.719828
25.168657
96.975565
209.107399
471.353531
760.778785
1015.697718
1015.697718
1015.697718
1015.697718
1015.697718
1015.697718
968.992710
660.874844
330.733657
172.313452
56.624413
19.808412
9.121895
10.095835
14.383793
20.415783
32.212734
43.992996
61.888695
73.472857
84.925890
89.238882
86.070895
78.215003
63.855648
50.448775
33.130646
23.666620
14.663935
9.913445
6.608963
5.282760
4.669428
4.439950
4.121661
3.824830
3.659725
3.607869
3.655553
3.718734
3.499985
3.521442
3.539920
3.355742
3.676414
3.620982
3.427863
3.235936
3.346801
3.405809
3.122687
3.151894
3.128648
##ZVALUE=315
0.476837
0.324845
0.493526
0.400543
0.406504
0.414848
0.560880
0.536442
0.458956
0.560880
0.388622
0.370741
0.481606
0.589490
0.420809
0.433922
0.433922
0.523925
0.625849
0.457764
0.507832
0.611544
0.733733
0.719428
0.820756
0.750422
0.795722
0.748634
0.809431
0.765920
0.764728
0.923872
1.051426
1.054406
1.084805
1.238585
1.369715
1.465678
1.857877
3.345609
12.683868
63.400865
150.046945
367.779732
629.448891
1015.696526
1015.696526
1015.696526
1015.696526
1015.696526
1015.696526
1015.696526
884.841681
479.290485
258.579850
89.060664
32.664537
10.149479
7.860661
9.380579
12.160540
19.791722
28.105974
42.134523
54.703951
70.286989
79.191923
83.627701
82.544684
72.927475
62.314868
46.576858
34.580827
21.232963
14.313459
8.696914
5.965829
4.533529
4.021525
3.748536
3.507733
3.401637
3.455877
3.426671
3.557801
3.433824
3.266931
3.469586
3.363490
3.499985
3.304482
3.396869
3.376603
3.237724
3.356934
3.240705
##ZVALUE=320
0.535846
0.499487
0.532866
0.380874
0.517964
0.551939
0.504851
0.457764
0.651479
0.577569
0.557899
0.651479
0.496507
0.453591
0.540614
0.629425
0.548959
0.627637
0.767708
0.710487
0.583529
0.645518
0.704527
0.802875
0.719428
0.678897
0.873804
0.795722
0.898838
0.857711
0.942945
0.931621
0.897646
1.003742
1.014471
1.159906
1.172423
1.469851
1.448989
1.580715
1.929998
2.301931
5.264878
31.049848
87.933540
252.891779
445.721745
806.156993
1015.812755
1015.812755
1015.812755
1015.812755
1015.812755
1015.812755
1015.812755
624.434948
359.393954
148.449540
61.096549
15.473962
8.027554
7.627606
8.479953
11.561513
16.231537
26.644468
37.108660
51.956773
63.870549
75.676441
80.270767
78.718662
71.692467
58.191419
45.669675
31.031966
21.574497
13.207793
8.785725
5.539656
4.455447
4.055500
3.766418
3.694892
3.518462
3.554821
3.524423
3.454685
3.442764
3.329515
3.609657
3.334880
3.289580
3.343821
3.448725
3.396869
##ZVALUE=325
0.244975
0.379682
0.339746
0.359416
0.392795
0.438690
0.337958
0.270605
0.313520
0.382662
0.474453
0.420809
0.515580
0.450611
0.455976
0.361800
0.393987
0.517964
0.504851
0.686646
0.685453
0.492930
0.510812
0.544786
0.546575
0.665784
0.648499
0.615716
0.615716
0.638962
0.696778
0.686646
0.616908
0.819564
0.878572
0.938773
0.852942
0.817776
1.141429
1.084805
1.308918
1.504421
1.508594
1.980662
3.077984
19.605756
57.207942
171.154737
329.901576
673.292875
986.132622
1015.697718
1015.697718
1015.697718
1015.697718
1015.697718
1015.697718
772.712827
479.443669
210.453868
95.267892
24.812818
9.419918
6.852746
6.878972
8.161664
10.566711
16.760826
24.384856
37.661791
48.431754
61.879754
70.357919
74.765682
73.459744
64.974427
54.914951
40.373802
29.733777
18.467903
12.526512
7.364750
5.492568
4.278421
3.613830
3.351569
3.443956
3.218651
3.102422
3.293753
3.335476
3.128648
3.064871
3.071427
3.055930
3.082752
##ZVALUE=330
0.373721
0.270605
0.345707
0.308752
0.457764
0.251532
0.478625
0.277758
0.558496
0.337958
0.312924
0.333786
0.377893
0.468493
0.368953
0.407696
0.364780
0.525713
0.348687
0.624657
0.523925
0.377893
0.484586
0.476837
0.572801
0.537634
0.527501
0.552535
0.687838
0.619888
0.606775
0.800490
0.730753
0.791550
0.786781
0.877976
0.861883
1.009703
1.097918
1.040697
1.063943
1.204610
1.410842
1.430511
1.619458
1.590848
2.010465
8.370876
30.252934
117.236972
246.449709
545.739532
859.948993
1015.696526
1015.696526
1015.696526
1015.696526
1015.696526
1015.696526
975.024700
652.807951
307.517648
152.005553
47.858953
15.753508
7.077456
6.572604
6.945729
7.849932
11.048913
15.571713
23.906827
33.244491
46.638846
56.663752
65.679550
69.365501
67.788959
62.102675
50.314665
39.808750
26.993752
19.157529
12.062788
8.588433
5.559921
4.440546
3.886819
3.677607
3.458858
3.220439
3.203750
3.094673
3.165603
3.155470
2.974868
##ZVALUE=335
0.350475
0.314713
0.363588
0.364780
0.231862
0.417829
0.400543
0.472665
0.500679
0.339746
0.400543
0.385642
0.491738
0.447631
0.317693
0.394583
0.442863
0.452995
0.429749
0.428557
0.524521
0.579953
0.592470
0.499487
0.457764
0.474453
0.434518
0.599623
0.582933
0.510812
0.479817
0.712872
0.562668
0.585914
0.629425
0.717640
0.818968
0.784993
0.969768
0.870824
0.954866
1.004934
1.117587
1.084805
1.139641
1.340508
1.496673
1.750588
2.040863
3.707409
14.221668
68.936944
163.177848
408.306718
698.402524
1015.696526
1015.696526
1015.696526
1015.696526
1015.696526
1015.696526
1015.696526
826.308727
438.118577
226.437449
71.736574
25.751591
8.284450
6.751418
6.571412
6.690621
8.034706
9.877682
15.142560
21.374822
31.990409
41.998625
53.078532
60.375929
64.689517
63.460469
56.073666
49.228668
37.898421
28.902888
18.839836
13.406873
8.196831
5.919933
4.163980
3.798604
3.247857
3.203750
2.936721
2.975464
3.197789
##ZVALUE=340
0.305772
0.356436
0.338554
0.254512
0.433922
0.335574
0.354648
0.311732
0.459552
0.353456
0.349879
0.425577
0.450611
0.444651
0.356436
0.435710
0.440478
0.523925
0.485778
0.388622
0.557899
0.580549
0.423789
0.550747
0.493526
0.535846
0.550747
0.403523
0.482798
0.455976
0.521541
0.684857
0.467896
0.654459
0.681877
0.628829
0.702739
0.689626
0.757575
0.738502
0.739694
0.828505
0.848770
1.000762
0.968575
1.112819
1.071692
1.303554
1.423955
1.580715
1.623631
2.272725
6.223917
37.859678
104.434490
292.969942
528.240800
936.943889
1015.696526
1015.696526
1015.696526
1015.696526
1015.696526
1015.696526
970.050693
530.565977
297.697783
116.661787
42.082667
10.362864
7.062554
6.441474
6.429553
6.264448
7.007718
9.560585
13.384819
20.938516
28.706789
40.876865
49.265623
57.966709
60.517788
58.635473
54.807663
46.060681
37.399530
26.774406
19.848943
12.657642
8.425713
5.505681
4.282594
3.639460
3.165603
3.197789
##ZVALUE=345
0.417829
0.184774
0.335574
0.225902
0.122786
0.316501
0.238419
0.312924
0.251532
0.331998
0.314713
0.358820
0.353456
0.402927
0.371933
0.467896
0.284910
0.326633
0.263453
0.170469
0.486970
0.360608
0.507832
0.398755
0.446439
0.348687
0.588894
0.525713
0.527501
0.453591
0.409484
0.482798
0.564456
0.621676
0.557899
0.532866
0.483990
0.583529
0.582933
0.591874
0.542998
0.739694
0.754595
0.799894
0.694990
0.920892
1.009703
0.942945
1.190901
1.101494
1.245737
1.529455
1.623631
1.802444
2.979636
20.209551
66.756606
205.813646
387.946963
744.233727
1015.664935
1015.664935
1015.664935
1015.664935
1015.664935
1015.664935
1015.664935
704.332590
402.181745
155.154467
63.157678
15.985966
8.179545
7.039905
6.281734
5.712509
5.468726
6.387830
7.866621
12.779832
18.133521
27.608871
35.448670
44.716001
51.115751
55.617690
56.249499
51.260591
45.380592
35.688877
27.795434
18.423796
13.059974
8.183718
5.686879
4.147887
##ZVALUE=350
0.266433
0.320673
0.312924
0.309944
0.560880
0.377893
0.297427
0.475645
0.293851
0.425577
0.284910
0.434518
0.313520
0.379682
0.368953
0.357628
0.441670
0.467896
0.481606
0.479817
0.433922
0.273585
0.384450
0.529885
0.453591
0.310540
0.402927
0.324845
0.427961
0.535846
0.358820
0.420809
0.333786
0.584722
0.567436
0.597835
0.456572
0.535846
0.668764
0.494719
0.621676
0.539422
0.630617
0.816584
0.707507
0.885725
0.908971
0.850558
0.964999
1.072884
1.239777
1.199841
1.391768
1.395941
1.707673
1.902580
2.371669
9.890795
37.187934
134.519935
272.339582
583.533645
891.522765
1015.691757
1015.691757
1015.691757
1015.691757
1015.691757
1015.691757
832.355618
518.178940
236.585736
103.659630
24.271607
9.266734
6.187558
5.567670
5.156994
4.901886
4.898906
5.584955
7.938743
10.806918
16.488433
22.254586
31.732917
38.720965
46.462417
50.174594
50.733685
48.263669
41.177869
35.027862
25.902987
19.558668
12.935996
##ZVALUE=355
0.293851
0.321865
0.268817
0.378489
0.332594
0.236630
0.136495
0.336766
0.317693
0.279546
0.380874
0.462532
0.286698
0.384450
0.351667
0.423789
0.404716
0.370741
0.327826
0.545979
0.419617
0.464916
0.502467
0.444651
0.488758
0.470877
0.508428
0.469685
0.542998
0.453591
0.471473
0.436902
0.453591
0.454783
0.560880
0.479817
0.483990
0.479817
0.507832
0.618696
0.717640
0.696778
0.543594
0.639558
0.747442
0.725985
0.855923
0.818968
0.966787
0.926852
0.969768
1.185536
1.301765
1.312494
1.372695
1.423955
1.468658
1.826882
1.964569
3.428459
21.365881
66.429973
201.093554
382.114053
758.755803
1015.661955
1015.661955
1015.661955
1015.661955
1015.661955
1015.661955
1010.265946
619.024634
344.718695
126.972795
49.088597
11.772513
6.398559
5.315542
5.018711
4.547834
4.523993
4.518628
4.940629
6.755590
9.027719
14.118552
19.340515
27.825832
34.295917
41.349530
45.201778
46.503544
44.772625
39.250851
33.415556
##ZVALUE=360
0.278950
0.301600
0.252724
0.272989
0.440478
0.436902
0.490546
0.497699
0.278950
0.337958
0.414848
0.351667
0.379682
0.478625
0.494719
0.425577
0.430942
0.496507
0.574589
0.342727
0.639558
0.506639
0.463724
0.600815
0.687838
0.616908
0.496507
0.639558
0.624657
0.613928
0.423789
0.491738
0.445843
0.739694
0.491738
0.570416
0.653863
0.569820
0.475645
0.491738
0.663996
0.716448
0.600815
0.772476
0.802875
0.794530
0.755787
0.833869
0.865459
0.928640
0.909567
0.992417
1.083612
0.999570
1.205802
1.339912
1.235604
1.597404
1.685619
1.854897
2.173781
2.723932
7.451773
40.845871
110.526681
299.368501
527.393818
926.317573
1015.697718
1015.697718
1015.697718
1015.697718
1015.697718
1015.697718
838.741660
444.526672
227.537751
70.483685
23.431778
6.901622
5.598664
4.925728
4.913807
4.449487
4.083514
4.090667
4.424453
5.438924
7.272959
10.992885
15.210509
22.824407
28.682947
35.741925
40.459633
42.861700
##ZVALUE=365
0.530481
0.267625
0.304580
0.269413
0.348687
0.446439
0.333786
0.479817
0.446439
0.435710
0.353456
0.395775
0.334978
0.365973
0.396967
0.361800
0.477433
0.311732
0.467896
0.521541
0.459552
0.367761
0.423789
0.430942
0.465512
0.448823
0.472665
0.509620
0.518560
0.453591
0.567436
0.573993
0.563860
0.525713
0.520945
0.692606
0.590682
0.578761
0.794530
0.636578
0.620484
0.774860
0.718832
0.724792
0.707507
0.784993
0.662804
0.862479
0.741482
0.856519
0.978708
0.978708
1.052618
1.018643
1.140833
1.147985
1.121759
1.173615
1.244545
1.554489
1.702905
1.857877
2.059937
2.343655
3.643632
21.098852
70.590973
216.372609
412.135720
792.036653
1015.705466
1015.705466
1015.705466
1015.705466
1015.705466
1015.705466
1015.706062
617.934465
338.994861
120.810866
43.825507
9.623766
5.665421
5.152822
4.603863
4.289746
4.116893
3.828406
3.755689
3.970861
4.563928
6.359816
8.815527
13.215542
18.131733
24.783611
##ZVALUE=370
0.417829
0.383854
0.376701
0.294447
0.461936
0.232458
0.417829
0.402927
0.247955
0.216961
0.375509
0.406504
0.234842
0.424981
0.398755
0.449419
0.373721
0.204444
0.360608
0.363588
0.272989
0.436902
0.421405
0.431538
0.363588
0.244975
0.420809
0.410676
0.397563
0.407696
0.556707
0.500679
0.449419
0.330806
0.547767
0.405908
0.567436
0.438690
0.558496
0.582933
0.602603
0.511408
0.499487
0.719428
0.748634
0.671744
0.650883
0.595450
0.764728
0.754595
0.695586
0.740886
0.825524
0.726581
0.845790
0.736713
0.806451
0.985861
0.990629
1.077652
1.168847
1.306534
1.394749
1.614690
1.613498
1.807809
2.423525
10.460615
41.819811
155.884624
308.949947
628.463030
959.976912
1015.691757
1015.691757
1015.691757
1015.691757
1015.691757
1015.691757
717.127919
414.180756
161.724687
70.529580
19.178987
6.972551
4.614592
4.441738
3.934503
3.640652
3.438592
3.414750
3.345609
3.394485
4.076958
5.172491
7.797480
##ZVALUE=375
0.341535
0.229478
0.260472
0.287890
0.230670
0.207424
0.130534
0.268817
0.270605
0.311732
0.377893
0.282526
0.266433
0.302792
0.330806
0.232458
0.352859
0.213981
0.429749
0.391603
0.303984
0.357628
0.331998
0.307560
0.437498
0.192523
0.335574
0.386834
0.369549
0.380874
0.424981
0.354648
0.374913
0.397563
0.351667
0.503659
0.380874
0.425577
0.411868
0.319481
0.542998
0.502467
0.386834
0.468493
0.479817
0.504851
0.542998
0.525713
0.543594
0.638962
0.520945
0.535846
0.649691
0.719428
0.627637
0.663996
0.810623
0.759959
0.666976
0.758767
0.838637
1.025796
1.023412
1.209974
1.222491
1.297593
1.509786
1.885891
2.265573
4.916787
17.423630
76.786876
182.660818
446.884632
732.015967
1015.667915
1015.667915
1015.667915
1015.667915
1015.667915
1015.667915
912.662745
599.115491
299.722552
146.543980
41.166544
12.499690
4.893541
4.262924
3.911853
3.651977
3.229976
3.150702
3.025532
3.088713
2.901554
##ZVALUE=380
0.265837
0.393987
0.286698
0.405908
0.054836
0.352859
0.229478
0.215769
0.134706
0.257492
0.130534
0.352859
0.275970
0.203848
0.264645
0.430942
0.351667
0.340939
0.372529
0.196695
0.329614
0.246763
0.302792
0.343919
0.282526
0.390410
0.355840
0.302792
0.429749
0.240803
0.325441
0.455976
0.280738
0.534654
0.432730
0.438690
0.447631
0.395775
0.568628
0.444651
0.429749
0.434518
0.493526
0.501871
0.466704
0.553727
0.608563
0.539422
0.587702
0.427961
0.544786
0.487566
0.617504
0.663996
0.500679
0.741482
0.689626
0.657439
0.721812
0.669956
0.826716
0.853539
0.911951
0.918508
1.104474
1.267791
1.383424
1.500845
1.788735
2.049804
2.369881
3.056526
8.909702
52.057505
135.811567
356.428027
610.327721
992.980003
1015.697718
1015.697718
1015.697718
1015.697718
1015.697718
1015.697718
815.739632
420.496464
219.510794
72.496533
24.670959
6.169677
4.149675
3.657937
3.552437
3.230572
3.129840
2.925992
##ZVALUE=385
0.348687
0.382662
0.475645
0.415444
0.433922
0.377893
0.442863
0.339746
0.379682
0.381470
0.412464
0.407696
0.517964
0.426769
0.444651
0.540614
0.448823
0.385642
0.443459
0.544786
0.565648
0.579953
0.536442
0.362992
0.543594
0.518560
0.517964
0.407696
0.542998
0.557899
0.591874
0.611544
0.475645
0.524521
0.605583
0.538826
0.535846
0.560880
0.547767
0.489950
0.502467
0.550747
0.521541
0.668764
0.583529
0.729561
0.694990
0.609756
0.633597
0.514984
0.595450
0.689626
0.672936
0.650883
0.831485
0.661612
0.843406
0.700951
0.860691
0.941753
0.872612
0.985861
0.896454
1.146793
1.085997
1.153946
1.389980
1.651645
1.653433
1.904964
2.035499
2.069473
2.155900
2.370477
4.313588
27.166605
83.396435
243.438482
465.347767
893.225670
1015.867591
1015.867591
1015.867591
1015.867591
1015.867591
1015.867591
1013.651490
618.992448
359.708667
145.873427
54.199696
11.006594
4.806519
3.964901
3.813505
3.227592
##ZVALUE=390
0.470877
0.447631
0.476837
0.528693
0.457764
0.601411
0.612736
0.443459
0.539422
0.458956
0.634789
0.587702
0.548959
0.478625
0.471473
0.505447
0.510812
0.580549
0.606775
0.624657
0.537634
0.621676
0.670552
0.629425
0.628829
0.688434
0.542998
0.645518
0.569820
0.530481
0.800490
0.752807
0.590682
0.424981
0.652671
0.571609
0.488758
0.586510
0.645518
0.700951
0.617504
0.652671
0.655651
0.655651
0.616908
0.599623
0.713468
0.804663
0.739694
0.758767
0.726581
0.747442
0.700951
0.562668
1.045465
0.763535
0.753999
0.761747
0.826716
0.952482
0.947714
1.046658
1.091957
1.105666
1.088977
1.122952
1.280904
1.594424
1.520514
1.826882
1.846552
1.974702
1.915693
1.972914
1.995564
2.159476
2.630949
12.240410
48.576593
176.365972
359.743834
727.810860
1008.682847
1015.968919
1015.968919
1015.968919
1015.968919
1015.968919
1015.968919
855.499506
518.833995
216.516852
94.686747
21.489859
7.017851
4.090667
##ZVALUE=395
0.458956
0.194907
0.291467
0.302792
0.332594
0.021458
0.174642
0.182986
0.254512
0.232458
0.289679
0.148416
0.332594
0.228882
0.259876
0.272989
0.349879
0.326633
0.218749
0.325441
0.310540
0.154972
0.286698
0.318885
0.319481
0.268817
0.143647
0.229478
0.337958
0.361800
0.297427
0.429749
0.417829
0.364780
0.377893
0.447631
0.336766
0.328422
0.236630
0.428557
0.329614
0.357628
0.459552
0.294447
0.408888
0.441670
0.473857
0.432730
0.363588
0.416636
0.502467
0.434518
0.525713
0.498891
0.518560
0.496507
0.489950
0.653863
0.441670
0.648499
0.711679
0.639558
0.777841
0.806451
0.832677
1.134872
1.081824
1.163483
1.235604
1.479983
1.161695
1.366735
1.463890
1.319647
1.432896
1.450777
1.551509
1.797676
1.976490
6.386638
26.637912
119.201541
259.989500
564.229488
874.750614
1015.696526
1015.696526
1015.696526
1015.696526
1015.696526
1015.696526
991.106629
683.546662
339.637995
164.446831
47.829747
##ZVALUE=400
0.173450
0.238419
0.215769
0.137687
0.246763
0.134706
0.144839
0.092983
0.210404
0.200868
0.299811
0.196695
0.256896
0.204444
0.223517
0.215769
0.213981
0.254512
0.330806
0.194907
0.352859
0.315905
0.319481
0.399947
0.239611
0.281930
0.305772
0.357628
0.288486
0.311732
0.446439
0.350475
0.364780
0.340939
0.241995
0.357628
0.227690
0.247955
0.287890
0.286698
0.381470
0.337958
0.357628
0.514984
0.492930
0.386834
0.345707
0.388622
0.420809
0.509620
0.485778
0.515580
0.661612
0.482798
0.438690
0.650883
0.289679
0.642538
0.519753
0.500679
0.562668
0.679493
0.690818
0.711679
0.927448
1.066923
1.090765
1.283884
1.245737
1.281500
1.370907
1.338720
1.179576
1.214743
1.069903
1.254678
1.181960
1.311898
1.639724
1.751781
2.210736
3.002882
16.476512
55.552721
186.007619
370.506644
751.068592
1015.697718
1015.697718
1015.697718
1015.697718
1015.697718
1015.697718
1015.697718
804.106593
502.258539
##END
