##TITLE=DDW2
##FORMAT=SPECTACLE-ASCII V-1.2
##DATA TYPE=ULTRAVIOLET SPECTRUM
##SECOND TYPE=ULTRAVIOLET SPECTRUM
##DATE=02/08/18
##TIME=15:15:42
##SPECTROMETER/DATA SYSTEM=SPECTACLE
##XUNITS=NM EM
##YUNITS=ENERGY
##YFACTOR=1
##FIRSTX=220
##LASTX=410
##NPOINTS=96
##3DDATA=Equidistant
##ZUNITS=NM EX
##FIRSTZ=210
##LASTZ=400
##ZPOINTS=39
##XYDATA=(Y..Y)
##ZVALUE=210
12.384653
14.072657
12.232661
10.103583
8.659959
9.776950
9.118915
7.341504
6.047487
4.719496
3.426671
3.070831
1.384616
1.688600
1.964569
1.678467
1.670718
2.117753
2.277493
1.871586
2.113581
2.095699
2.482533
2.536774
1.931787
2.243519
3.243685
2.818704
2.627969
2.868772
3.585815
3.614426
3.372431
3.062487
3.379583
3.443956
3.261566
3.311634
3.054738
3.153682
3.469586
3.184676
2.633929
3.512502
3.409982
3.694892
3.503561
3.301501
3.815889
3.799796
3.405809
3.635883
3.908873
3.160834
3.858805
3.795624
4.034638
3.278852
3.974438
3.352761
3.903508
3.682971
3.540516
3.684759
2.997518
3.980994
3.960729
5.394816
4.652739
4.596710
6.034970
6.397963
7.910728
6.963611
8.968711
9.758472
8.967519
9.070635
8.109808
7.947683
6.821752
5.730987
5.808473
5.629659
4.612803
4.275441
4.610419
3.469586
4.249811
5.459785
6.760955
10.160804
14.610887
17.371774
23.361444
26.132464
##ZVALUE=215
34.346581
36.001801
29.027462
23.347735
20.823479
18.674731
16.613603
15.954971
15.352964
13.836622
12.404919
8.790493
6.112456
4.884601
3.588796
2.419949
2.199411
2.068877
1.594424
2.450943
2.186894
1.874566
2.813935
2.137423
2.182722
2.139807
2.640486
2.817512
3.284812
3.695488
3.110766
3.187656
3.470778
2.604723
3.539920
3.403425
3.990531
3.654957
3.590584
3.354549
4.016757
4.168749
3.397465
3.919601
3.681779
3.791451
3.650784
4.270673
3.931522
3.096461
3.697872
3.815889
4.385710
3.087521
3.794432
4.040599
4.137754
3.318787
4.251599
4.273653
4.280806
3.518462
3.614426
4.413724
4.451871
3.844500
3.935695
4.684925
4.702806
5.722642
5.375743
6.584525
7.980466
7.889867
8.615851
8.799434
8.290410
8.280873
7.652640
7.612705
7.222891
6.018877
5.019903
5.205870
5.422831
4.103780
4.008412
4.107952
3.383756
3.498793
3.123879
3.457665
3.484488
4.733801
7.049441
9.274483
##ZVALUE=220
74.352622
73.639750
72.011948
61.211586
52.658916
40.514469
33.143759
28.322935
25.974512
25.048852
24.335980
24.499893
20.467639
18.026829
14.016628
8.335710
6.296635
4.933476
3.887415
2.875924
3.056526
2.773404
2.377629
2.952814
2.535582
2.536774
3.004670
2.905726
3.469586
3.419518
3.063679
3.596544
3.418922
3.649592
3.603697
3.673434
4.169941
3.568530
3.734827
4.231930
4.712939
4.418492
4.325509
4.093647
4.192591
3.761649
3.542900
4.399419
3.950596
3.900528
4.089475
4.016757
4.043579
4.214644
3.944635
4.306436
4.207492
3.856421
4.307628
4.938841
4.265904
3.999472
3.980994
4.846454
4.204512
3.823638
3.838539
5.202889
5.675554
5.107522
6.210804
7.141829
7.930994
8.580685
9.110570
8.818507
8.901954
8.217692
7.302761
7.504821
6.806850
7.022619
6.796718
5.563498
4.912615
4.476905
3.831983
4.473925
4.359484
3.251433
3.874898
3.870726
3.540516
3.494620
3.501773
3.245473
##ZVALUE=225
96.096992
98.288655
114.997625
124.554634
124.154687
109.169483
99.619627
72.663426
59.736967
46.192408
40.386915
37.921667
40.916800
40.872693
38.106441
32.930970
26.000738
20.037889
13.732910
9.311438
5.258918
4.049540
3.340840
3.138781
3.271699
2.967715
3.411770
2.640486
3.600717
3.124475
3.925562
3.552437
4.197955
3.505945
4.131794
3.478527
4.095435
3.615618
4.461408
3.754497
3.569722
3.905892
4.625916
4.558563
3.925562
4.816651
4.258752
4.609823
4.789829
3.836751
3.905892
3.870726
4.434586
4.185438
3.976822
5.345941
4.094839
4.730821
5.025864
5.017519
4.911423
4.502535
4.886985
3.924966
5.697608
5.792975
5.663633
5.081892
4.841685
6.081462
6.714463
8.342862
7.336736
8.053780
8.028746
8.422732
8.194447
8.269548
7.884502
7.306933
6.826520
5.706549
6.031990
4.851818
4.833937
4.207492
4.274845
4.312992
3.321767
4.443526
3.724694
3.977418
4.281998
3.509521
3.349781
3.463626
##ZVALUE=230
67.540407
70.760846
104.007721
150.848627
177.254677
208.456516
214.137435
194.583535
171.453953
139.957666
102.024674
78.129768
60.708523
60.394406
62.820911
62.888861
62.739849
57.933927
49.660802
38.773417
28.542876
18.669963
13.688803
6.456971
4.880428
3.907681
4.500747
4.183650
3.549457
3.337860
3.864765
4.281998
3.675818
4.059672
4.413724
4.419684
3.654957
4.221797
3.712773
4.911423
4.439950
4.981756
4.682541
4.091859
4.730821
5.427599
4.872680
4.714727
4.922748
4.279613
4.631877
4.529953
4.820824
4.965663
4.798770
5.419850
5.054474
5.213618
5.244613
4.700422
4.838705
5.110502
5.402565
5.923510
5.427599
4.208684
5.416870
5.795956
6.184578
7.470846
6.767511
7.159710
9.049773
9.282827
9.092689
8.213520
9.289980
8.992553
7.223487
7.487535
6.840825
7.128716
6.504655
6.701946
5.502701
5.076528
5.163550
4.946589
4.389882
4.183650
4.442930
4.930496
4.257560
4.308820
4.289746
5.391836
##ZVALUE=235
20.310879
19.094944
48.170686
83.436966
153.419971
209.729671
282.606483
324.300528
351.179838
331.905484
285.654664
223.574638
174.212456
114.550591
91.955662
80.049634
80.432892
86.409450
92.024803
90.225935
81.334710
69.253445
51.820874
37.796497
22.447705
16.085505
9.564757
5.634427
5.795956
5.209446
5.263686
5.246997
4.771948
4.688501
5.694628
4.491806
5.024672
4.937649
4.892945
4.273653
4.466772
4.969835
4.966855
4.595518
4.596710
4.976988
4.970431
4.686713
4.286766
4.905462
4.568696
4.351735
5.374551
4.439950
4.751682
4.520416
4.229546
5.458593
5.234480
4.809499
5.659461
5.532503
5.550981
5.444884
5.487800
5.770922
5.184412
5.957484
6.641746
6.632805
7.348657
7.334948
7.676482
8.871555
9.477735
10.287762
9.258986
8.866787
8.647442
7.844567
8.008480
6.896853
7.276535
6.786585
6.902814
6.129742
5.763769
5.169511
5.067587
5.168915
4.847646
4.671812
5.403757
4.780889
5.142689
5.127788
##ZVALUE=240
1.611710
1.624823
6.805658
18.747449
46.134591
86.664557
164.632797
237.676501
342.543721
396.638513
437.998772
422.254801
386.361480
308.464766
236.349702
153.310895
115.963817
90.303421
89.956522
99.624991
109.804869
114.045739
105.151534
98.469853
79.792738
62.908530
41.989684
30.969977
17.926693
12.161732
8.642673
7.170439
6.367564
5.723834
5.409718
5.175471
6.092787
5.529523
5.143881
4.938841
4.756451
4.548430
5.053878
4.442930
4.257560
3.585815
4.410744
4.685521
5.063415
4.737973
4.289746
3.847480
4.601479
4.355907
3.812909
4.709959
4.200935
4.405975
4.700422
5.784631
5.319715
4.844666
4.484653
4.767776
5.230904
5.051494
5.247593
5.482435
5.822778
6.979704
6.179810
6.586909
8.493662
9.581447
8.626580
9.237528
8.082986
8.479953
6.706715
7.426739
7.246733
6.179810
6.339550
5.588531
5.575418
4.788637
5.458593
5.868673
4.270673
4.794598
4.864931
4.782677
4.372597
5.316734
4.699826
4.730821
##ZVALUE=245
1.012683
1.452565
1.045465
1.560450
3.485680
12.420416
32.804608
79.861879
141.514540
219.106674
345.978737
418.490767
487.342477
497.411489
462.112427
400.534868
288.066864
216.029882
157.192945
107.556581
91.865659
94.699860
105.683804
119.550824
125.955939
115.883946
104.511976
84.377527
67.219734
47.825575
34.133792
19.470453
13.134480
9.700656
6.277561
6.799698
6.479621
6.094575
5.771518
5.497932
5.114675
4.798770
5.140901
4.522800
4.481673
5.303621
4.816651
4.306436
4.321933
4.765987
4.567504
3.544688
3.667474
3.962517
4.031658
4.303455
4.482865
4.119873
3.873706
3.721714
3.823638
4.038811
3.779531
4.222989
4.410744
4.512668
4.198551
4.446507
5.109906
5.357862
5.951524
6.416440
6.841421
7.554889
7.321835
8.003712
7.295609
7.207990
7.390976
6.870627
5.434752
5.326867
5.740523
4.835725
5.401969
4.533529
4.834533
4.922748
4.530549
4.518628
4.420877
4.672408
3.538728
3.728867
2.941489
4.123449
##ZVALUE=250
1.045465
1.092553
1.003742
0.868440
1.188517
1.277924
1.747608
6.484985
25.851727
56.999922
132.588744
213.219523
307.340622
427.571535
505.118966
562.078953
555.540919
482.185483
405.787826
286.543965
194.060802
135.099888
90.184808
84.229708
101.129413
114.973783
128.361583
132.650733
124.467611
114.493966
95.420480
74.014664
55.611730
31.592846
21.230578
12.029409
8.273721
5.692840
6.220937
5.035996
4.824996
4.606843
4.719496
4.770756
4.387498
4.816651
4.679561
4.256964
4.230738
3.880858
3.797412
3.588796
4.122853
3.580451
3.733635
3.550649
3.688931
3.225803
3.469586
3.748536
3.577471
3.431439
4.058480
4.126430
3.608465
3.707409
3.839731
3.630519
3.782511
4.915595
5.330443
5.809665
5.509853
5.946755
6.169677
6.830692
6.083846
5.943775
5.872846
5.376935
5.114675
4.710555
4.541874
4.160404
4.582405
3.563762
3.592968
3.943443
3.493428
3.456473
3.881454
3.367662
3.566742
3.454685
3.519654
3.022552
##ZVALUE=255
0.725985
0.980496
0.677705
0.615716
1.047850
1.211762
1.179576
1.355410
1.310706
3.566742
16.255975
42.196512
86.941719
182.021856
280.267596
419.602990
511.359572
591.555834
619.007945
575.909615
492.341518
388.286710
247.588754
164.805651
97.514987
79.477429
82.588792
93.360543
115.759969
127.800703
135.393739
130.042434
115.182996
94.558597
75.544715
48.645735
33.748746
18.993616
11.625886
6.971955
5.122423
4.632473
4.410744
4.500747
4.103780
3.859997
4.108548
3.732443
3.550649
3.102422
3.030896
3.797412
3.426671
3.243685
3.010631
3.648996
3.594756
2.918839
3.108978
2.851486
2.923608
3.467798
3.393888
3.062487
3.201962
3.748536
3.221631
3.584623
3.638864
3.914833
4.997849
4.496574
4.827976
4.932880
4.572868
4.620552
4.900694
4.573464
4.168749
3.989935
4.078746
3.380775
3.656745
2.952814
3.474951
3.422499
3.449917
3.181696
3.262758
3.140569
2.838969
2.995729
2.935529
3.089905
2.547503
2.507567
##ZVALUE=260
0.779629
1.001954
0.856519
0.907779
1.107454
0.912547
1.014471
0.870824
0.928640
1.254678
1.220703
1.731515
6.497502
26.453733
60.498714
143.640637
231.798887
370.130539
481.688976
613.493919
660.810471
662.835836
579.932928
474.525690
314.095616
219.317675
128.408670
87.761879
67.376494
75.729489
92.703700
116.499662
129.931569
140.598416
135.350823
118.410587
101.226568
70.991516
54.991841
32.652617
20.090938
10.547638
6.700754
5.250573
4.055500
3.834963
3.974438
3.361702
3.587604
3.611445
3.717542
3.374815
3.102422
2.920628
3.035665
2.837777
3.176928
2.996922
3.017783
3.126860
3.127456
3.109574
3.007650
2.843738
3.132820
3.509521
3.171563
3.733635
3.772974
3.604889
3.992915
3.869534
4.385710
4.397631
4.081726
3.856421
3.963709
3.965497
4.128814
3.840923
2.904534
3.034472
2.982616
2.896786
2.732873
2.742410
2.516508
2.790689
2.777576
2.508759
2.451539
2.860427
2.519488
2.551675
2.152920
2.480745
##ZVALUE=265
0.634789
0.677705
0.886917
0.724792
0.859499
0.660419
0.794530
0.886917
0.970960
0.697970
1.157522
1.048446
1.136661
1.613498
3.201962
17.596483
43.867826
109.712481
189.971924
343.115926
475.978851
590.728521
696.205497
715.298653
652.590990
560.804605
408.154726
290.055871
165.981650
104.279518
69.387555
62.093735
70.872903
100.556612
119.522810
135.976672
140.447617
130.308867
119.803548
96.325874
73.714852
47.791600
32.072663
17.842650
10.391474
5.561709
4.300475
3.614426
3.450513
3.494620
3.583431
3.409982
2.926588
3.463626
3.160834
3.014803
3.334880
2.962947
2.919436
2.906919
3.133416
3.102422
2.893806
3.098845
2.938509
2.911687
3.088713
2.875924
3.087521
3.562570
3.228784
4.010797
3.798604
3.449917
4.149675
3.484488
3.600717
3.442764
3.315806
3.491640
2.438426
2.574921
2.761483
2.382994
2.295971
2.440810
2.300739
1.999736
2.331734
2.308488
1.937747
2.191663
2.196431
2.324581
2.406836
2.205968
##ZVALUE=270
0.643730
0.689626
0.700951
0.536442
0.617504
0.774860
0.724792
0.694990
0.697970
0.794530
0.597835
1.005530
0.947714
0.900626
1.195669
1.136661
1.703501
8.176565
24.405718
78.230500
150.626898
221.958756
429.612994
567.071438
708.273649
753.102899
734.342933
656.473637
508.236885
383.480787
230.916739
145.547986
74.772835
53.996444
55.900812
73.426962
100.653768
117.372870
134.574771
142.118931
135.100484
120.563507
96.627474
76.536536
49.107671
32.854676
18.172860
11.962652
6.374717
4.265904
3.662705
3.203750
3.184676
3.240705
3.368855
3.049970
3.009439
2.778769
2.572536
2.855659
2.555847
2.613664
2.306700
2.733469
2.758503
2.605915
2.810955
2.736449
2.808571
3.178716
3.237724
3.479719
3.324747
3.595948
3.676414
3.266931
3.281832
3.427863
2.752542
2.880692
2.431870
2.627969
2.242923
2.166629
2.235770
2.305508
2.203584
1.967549
2.190471
2.175570
2.125502
2.071857
2.074838
2.386570
2.140999
2.102852
##ZVALUE=275
0.483990
0.563860
0.573993
0.722408
0.821948
0.699759
0.651479
0.805855
0.618696
0.717640
0.785589
0.735521
0.799894
0.838637
0.993609
1.097918
1.044869
1.256466
1.476407
3.034472
12.395978
50.011873
105.332732
230.848789
358.629823
538.812876
651.262999
751.357675
768.684745
713.864565
624.727011
456.535816
325.080752
177.069902
104.800463
54.651499
41.771531
53.133965
70.878863
95.364451
114.995837
130.977631
136.454701
132.163763
116.616488
94.044805
74.431896
49.257874
33.332705
18.439889
11.650920
5.834699
4.297495
3.234744
2.992749
2.859831
3.008842
2.907515
3.084540
2.931952
2.935529
2.899766
2.659559
2.868772
2.853870
2.774596
2.626777
2.736449
2.860427
2.785921
2.795458
3.239512
3.039837
2.980828
3.203750
3.275871
3.207922
2.852678
2.872944
2.595782
2.759695
2.408624
2.223849
2.290606
2.080798
2.117753
1.922846
1.957417
1.870990
2.215505
1.908541
1.926422
1.976490
1.745820
1.671910
1.850724
##ZVALUE=280
0.648499
0.502467
0.690818
0.495911
0.528693
0.472665
0.620484
0.498891
0.771880
0.791550
0.578761
0.812411
0.806451
0.974536
0.807643
0.884533
1.024604
0.937581
0.966787
1.190901
1.317859
1.505613
8.338690
28.982759
89.394450
162.131786
298.260450
431.718826
604.645610
711.989999
780.913830
770.349503
694.766641
531.577468
397.028923
225.235820
134.989619
62.678456
38.962960
36.603808
47.559738
72.382689
94.172955
116.422772
128.322840
133.046508
126.941800
111.339688
95.238686
69.490671
52.356720
32.101870
20.391941
10.494590
6.260872
3.768802
3.456473
2.877712
2.802610
2.590418
2.816916
2.617836
2.746582
2.918839
2.676845
2.924800
2.685785
2.430677
2.785921
2.576709
2.563596
3.013611
3.025532
3.141761
3.084540
2.985597
2.904534
2.989769
2.754927
2.289414
2.264977
2.252460
2.135634
2.065897
2.002716
1.910925
2.130866
2.251863
1.843572
1.926422
1.948476
1.909733
1.525879
1.745820
1.870990
1.641512
##ZVALUE=285
0.587702
0.479817
0.519753
0.693798
0.468493
0.448823
0.593662
0.642538
0.433922
0.398755
0.637770
0.549555
0.820756
0.692606
0.538826
0.662804
0.580549
0.542998
0.568628
0.848770
1.047850
0.805855
1.093745
1.385808
4.328489
14.306903
48.671961
100.376606
215.213895
335.589647
471.916795
649.482608
747.081637
794.540644
750.103593
609.919429
473.757982
296.969414
186.545849
89.188814
48.228502
26.901960
28.766990
46.396852
64.065456
91.013908
107.150674
121.704936
130.809546
126.420856
115.231872
93.527436
74.489713
50.018430
34.973621
18.227696
11.338592
6.069541
4.166961
2.946854
2.521873
2.388954
2.490878
2.392530
2.585649
2.412796
2.437830
2.264977
2.549887
2.530813
2.516508
2.650619
2.539754
2.747774
3.021955
2.758503
2.520680
2.322793
2.192855
2.226830
2.416968
1.919866
1.938939
1.872778
1.693964
1.838803
1.742840
1.797676
1.827478
1.759529
1.676679
1.578927
1.879930
1.736879
1.543760
1.747608
##ZVALUE=290
0.539422
0.534654
0.510812
0.539422
0.620484
0.685453
0.755787
0.626445
0.694990
0.620484
0.564456
0.584722
0.550747
0.684857
0.755787
0.802875
0.623465
0.512600
0.758767
0.920892
0.906587
1.067519
0.922680
1.191497
1.070499
1.447797
1.901984
5.362630
25.988817
63.203573
125.419497
259.101987
398.142934
590.828657
703.989863
793.297887
779.211521
676.828027
554.199815
374.110937
246.965885
122.802854
65.136552
28.311610
20.615458
29.522777
41.550994
62.457919
80.004930
103.839636
118.535757
126.658678
123.404860
110.570788
94.086528
69.653988
51.783919
31.268597
20.027757
10.558963
6.461740
3.927946
3.072619
2.600551
2.403855
2.180934
2.363920
2.338886
2.569556
2.427697
2.715588
2.764463
2.667904
2.746582
2.880692
2.640486
2.541542
2.447963
2.393723
2.241731
1.924634
2.234578
1.979470
2.190471
2.058744
1.884699
2.113581
1.888871
1.866817
1.846552
1.771450
1.801848
1.643896
1.740456
1.699924
1.746416
##ZVALUE=295
0.495911
0.386834
0.501871
0.403523
0.457764
0.396967
0.696778
0.458956
0.453591
0.522733
0.612736
0.472665
0.626445
0.480413
0.576973
0.501871
0.536442
0.722408
0.555515
0.795722
0.768900
0.518560
0.979900
1.003742
0.835657
0.943542
1.020432
1.231432
1.250505
2.574921
13.514757
38.423538
85.909963
205.294490
329.632759
523.785949
651.478767
772.083998
798.254013
732.250810
624.935627
448.920727
307.267904
162.417889
89.232922
34.621954
19.027591
17.898679
24.623871
40.391684
55.238605
79.641938
95.808506
112.383962
119.686723
115.351677
106.796622
86.632967
69.160461
46.674609
32.621622
18.374920
12.123585
6.374717
4.094839
2.816916
2.509952
2.375841
2.478957
2.447963
2.579689
2.608895
2.672672
2.652407
2.719760
2.613664
2.497435
2.402663
2.164841
2.095699
1.964569
1.789927
1.725554
1.915693
1.872778
1.852512
1.679659
1.549721
1.660585
1.795888
1.745820
1.678467
1.766682
1.764894
1.668930
1.788735
##ZVALUE=300
0.464916
0.431538
0.423789
0.441670
0.385642
0.307560
0.255704
0.427961
0.539422
0.534654
0.631809
0.488758
0.593662
0.499487
0.599623
0.643730
0.669956
0.527501
0.527501
0.494719
0.772476
0.559688
0.621676
0.619888
0.750422
0.712872
0.847578
1.112819
1.036525
1.098514
1.389980
1.420975
4.048944
22.491813
56.643486
143.269897
245.515704
421.561003
558.284521
711.624026
775.336623
767.690539
686.089993
523.518920
384.673476
214.385986
128.368735
56.864619
27.903914
13.567805
14.211535
23.054481
33.043623
52.014589
69.200993
91.235638
104.380846
112.498999
111.511946
101.159811
88.024735
65.761805
49.090981
31.659603
20.704865
10.863543
6.424785
3.956556
2.858639
2.397895
2.433658
2.374649
2.553463
2.408624
2.286434
2.222657
2.077818
2.173781
2.130866
1.960993
1.929998
1.808405
1.845956
1.811981
1.794696
1.604557
1.744628
1.629591
1.665950
1.654625
1.805425
1.588464
1.689792
1.464486
1.549721
1.595616
##ZVALUE=305
0.367761
0.412464
0.424981
0.466704
0.439882
0.435710
0.392795
0.491738
0.345707
0.525713
0.435710
0.450611
0.525713
0.469685
0.480413
0.661612
0.438690
0.599623
0.514984
0.560880
0.555515
0.709891
0.615716
0.653863
0.457764
0.733733
0.660419
0.785589
0.883937
0.784993
0.936985
1.017451
1.119971
1.229644
2.327561
13.211966
35.887957
103.349686
186.928511
346.768498
485.439897
650.578737
743.408799
770.393610
722.600818
579.012632
451.028943
284.351707
178.363919
82.288980
41.175485
15.512705
10.564923
13.285875
19.879937
33.746958
49.011707
71.039796
85.468888
100.297928
107.003450
105.716586
97.481608
81.373453
65.621734
44.024587
31.581521
18.757582
11.346936
6.173849
3.978610
2.815723
2.578497
2.412796
2.250671
2.058744
2.116561
2.151728
1.986623
1.871586
1.854897
1.693964
1.765490
1.704693
1.892447
1.597404
1.724958
1.596808
1.737475
1.525879
1.475811
1.607537
1.563430
1.603961
1.826882
1.549721
##ZVALUE=310
0.385642
0.426769
0.398755
0.390410
0.330806
0.495911
0.394583
0.509620
0.504851
0.537634
0.401735
0.407696
0.467896
0.289679
0.550747
0.341535
0.372529
0.495911
0.546575
0.596642
0.630617
0.595450
0.575781
0.604987
0.629425
0.744462
0.681877
0.568628
0.628829
0.642538
0.742674
0.742674
0.736713
1.064539
0.984669
1.187921
1.477599
5.525947
18.303990
62.093735
124.098659
256.168842
386.464596
564.340949
682.677627
767.029524
757.312775
660.067797
543.466806
366.572738
246.443748
122.649670
65.353513
24.351478
11.322498
8.785725
10.993481
18.255711
27.172565
44.309497
57.733655
78.964829
91.053843
98.978877
100.037456
91.868639
81.644654
61.339736
47.624707
29.272437
19.788742
11.143684
6.990433
3.797412
2.777576
2.451539
2.175570
1.788735
1.834631
1.603961
1.845956
1.717806
1.457930
1.724958
1.622438
1.640916
1.813769
1.812577
1.739860
1.875758
1.740456
1.615882
1.489520
1.454949
1.681447
1.542568
##ZVALUE=315
0.320673
0.302792
0.429749
0.212789
0.406504
0.413656
0.199676
0.459552
0.352859
0.391603
0.401735
0.488758
0.406504
0.320673
0.363588
0.430942
0.408888
0.348687
0.492930
0.468493
0.500679
0.400543
0.399947
0.598431
0.535846
0.470877
0.648499
0.669956
0.547767
0.697970
0.688434
0.803471
0.638962
0.869632
1.011491
0.887513
1.011491
1.176000
1.146793
2.509952
8.725524
37.897825
85.486770
194.623470
311.279893
498.500466
618.990660
733.625889
757.318735
699.692965
602.943897
435.112715
307.753682
163.163543
90.257525
33.596754
14.300942
7.322431
7.449985
10.554790
15.486479
26.554465
38.141608
55.839419
70.341825
86.249709
93.211532
94.219446
88.928938
74.074864
60.483813
41.958690
29.457808
16.747713
10.850430
5.984902
3.787875
2.464652
2.264977
1.685619
1.759529
1.614690
1.620650
1.765490
1.663566
1.751781
1.627803
1.572967
1.596808
1.513958
1.587868
1.687407
1.634955
1.480579
1.625419
1.503825
##ZVALUE=320
0.274777
0.446439
0.291467
0.357628
0.266433
0.402927
0.402927
0.387430
0.398755
0.340939
0.461936
0.423789
0.422597
0.448823
0.355840
0.470877
0.379682
0.463724
0.395775
0.612736
0.420809
0.616908
0.449419
0.429749
0.392795
0.541806
0.482798
0.576973
0.516772
0.509620
0.643730
0.638962
0.674725
0.694990
0.796914
0.693798
0.739694
0.922680
0.843406
0.979900
1.142621
1.493692
4.243851
22.475719
54.906607
139.251947
232.609510
394.130945
520.554781
668.548942
730.986595
724.538565
656.505823
502.815843
369.278789
208.396912
119.772553
51.444769
23.368001
8.762479
6.229877
6.698966
8.872747
13.760924
21.564960
35.943985
48.252940
65.487623
78.494549
87.488890
88.722706
83.576441
72.481632
55.946708
42.694807
26.759505
18.144846
9.946823
6.198883
3.594756
2.509952
1.930594
1.767874
1.876950
1.738667
1.659989
1.606941
1.489520
1.484752
1.510978
1.603961
1.442432
1.540780
1.566410
1.521707
1.510978
##ZVALUE=325
0.349879
0.340939
0.436902
0.430942
0.513792
0.430942
0.355840
0.400543
0.393987
0.468493
0.621676
0.498891
0.582933
0.459552
0.442863
0.444651
0.530481
0.476837
0.480413
0.446439
0.449419
0.432730
0.534654
0.522733
0.500679
0.673532
0.492930
0.726581
0.583529
0.628829
0.570416
0.584722
0.807643
0.715852
0.750422
0.803471
0.748634
1.049638
0.814795
0.913739
1.187921
0.982881
1.218915
1.215935
2.331734
13.408661
35.860538
95.651746
173.435807
326.556563
455.275774
614.527464
697.827935
727.564692
677.945018
539.415479
411.262512
253.037810
153.781772
68.497658
32.856464
11.169910
6.811619
5.671978
6.051660
8.429885
12.975931
21.800995
32.165647
49.488544
62.336922
75.453520
83.058476
83.042979
77.329874
64.654946
53.121448
37.480593
26.266575
15.393496
9.291768
5.186796
3.467798
2.498627
2.085567
1.644492
1.690984
1.668930
1.705885
1.349449
1.618862
1.543760
1.336932
1.543760
1.344681
1.459718
##ZVALUE=330
0.207424
0.305772
0.272989
0.217557
0.251532
0.356436
0.359416
0.190735
0.256896
0.424981
0.395775
0.310540
0.327826
0.320673
0.315905
0.279546
0.292659
0.309944
0.321865
0.475645
0.342727
0.593662
0.460744
0.285506
0.437498
0.565648
0.460744
0.507832
0.590682
0.512600
0.496507
0.678897
0.563860
0.557899
0.543594
0.594854
0.517964
0.632405
0.777841
0.639558
0.771880
0.786781
0.802875
0.929832
1.272559
1.151562
1.364946
5.872846
18.862486
63.486695
124.780536
253.372788
372.925997
540.692806
645.195842
714.271665
693.702698
591.298938
474.547744
310.149789
199.588537
94.766617
47.567487
17.070770
8.242726
4.919767
4.939437
5.693436
7.744431
13.143420
20.197630
31.281710
43.216944
59.407949
69.464445
76.917410
78.049898
72.204471
63.203573
47.587752
36.183596
22.866726
15.555620
9.257793
6.030798
3.509521
2.250671
1.833439
1.560450
1.467466
1.599789
1.509786
1.325607
1.332760
1.291633
1.336932
##ZVALUE=335
0.336766
0.362992
0.309944
0.293851
0.365973
0.450611
0.357628
0.410676
0.473857
0.283718
0.409484
0.423789
0.408888
0.285506
0.388622
0.463724
0.313520
0.429749
0.345707
0.374913
0.388622
0.411868
0.480413
0.430942
0.315905
0.503659
0.418425
0.453591
0.487566
0.477433
0.572801
0.464916
0.476837
0.568628
0.496507
0.488758
0.583529
0.493526
0.362992
0.758767
0.679493
0.566840
0.704527
0.592470
0.745654
0.782609
0.894666
1.024604
1.159906
2.878904
9.677410
39.623976
83.691478
186.721683
301.795602
473.648906
590.353608
683.887005
694.894791
624.142885
519.440770
358.276963
242.798924
127.286911
66.860914
23.376942
10.361671
5.111694
4.535913
4.792809
5.283952
7.572770
11.344552
19.872785
28.559566
42.606592
54.246783
65.481663
70.737600
72.373748
67.320466
56.560636
47.288537
33.484697
24.885535
15.172958
10.225773
5.810857
3.680587
2.502799
1.861453
1.606941
1.516938
1.334548
1.232624
1.409650
##ZVALUE=340
0.337958
0.271797
0.334978
0.321865
0.446439
0.366569
0.338554
0.452995
0.500679
0.302792
0.333786
0.377893
0.470877
0.320673
0.488758
0.387430
0.463724
0.381470
0.474453
0.391603
0.251532
0.442863
0.460744
0.583529
0.405908
0.454783
0.453591
0.440478
0.555515
0.386834
0.453591
0.421405
0.359416
0.387430
0.564456
0.669956
0.587702
0.382662
0.531673
0.529885
0.523925
0.603795
0.624657
0.597835
0.676513
0.781417
0.802875
0.725985
0.788569
1.037717
1.064539
1.550913
4.752874
23.644567
57.156682
144.334435
243.965983
400.863886
518.044829
639.360547
675.144792
637.184978
554.991961
413.371921
290.586948
151.758790
84.490776
34.148693
14.419556
5.913973
4.738569
4.305840
4.367828
5.212426
7.128716
11.573434
17.574430
27.909875
37.913918
51.788688
60.364604
66.556931
67.299604
62.384605
56.230426
44.366717
34.622550
23.313761
16.278625
9.875894
6.034970
3.558993
2.328753
1.765490
1.468658
1.348853
##ZVALUE=345
0.280738
0.301600
0.283718
0.345707
0.299811
0.178814
0.238419
0.523925
0.369549
0.405908
0.258684
0.235438
0.373721
0.232458
0.237823
0.413656
0.238419
0.445843
0.301600
0.363588
0.470877
0.219941
0.356436
0.371933
0.322461
0.394583
0.514984
0.414848
0.416636
0.367761
0.508428
0.310540
0.499487
0.501871
0.451803
0.254512
0.437498
0.291467
0.423789
0.475645
0.475645
0.446439
0.597835
0.433922
0.655651
0.548959
0.589490
0.653863
0.721812
0.733733
0.890493
0.885725
1.058578
1.078844
2.130866
12.703538
36.894679
100.345612
175.808668
314.177871
433.640480
577.722788
642.802715
651.445985
593.388677
454.257727
338.522792
198.991895
113.979578
45.937896
20.268559
7.194877
5.156994
4.287958
4.208684
3.815889
4.424453
6.493926
9.597540
16.453862
24.055839
36.772490
45.506954
54.656863
60.796738
62.225461
59.797764
53.071976
45.212507
33.445954
24.519563
15.287995
10.206699
5.658865
3.734827
2.477765
##ZVALUE=350
0.299811
0.295639
0.196695
0.278950
0.383854
0.370741
0.400543
0.241995
0.325441
0.213981
0.403523
0.404716
0.519753
0.490546
0.425577
0.318885
0.207424
0.249743
0.350475
0.328422
0.398755
0.290871
0.424981
0.299811
0.328422
0.423789
0.376701
0.277758
0.312924
0.335574
0.352859
0.462532
0.375509
0.475645
0.482798
0.425577
0.502467
0.448823
0.474453
0.573993
0.633597
0.669956
0.322461
0.515580
0.461936
0.626445
0.619888
0.539422
0.652671
0.484586
0.705719
0.698566
0.644922
0.879765
0.952482
1.091957
1.484752
6.404519
20.889640
66.132545
127.687454
251.158476
362.699628
507.054925
604.702830
659.133792
620.333552
514.399409
394.449830
234.447718
143.847466
66.369772
30.654669
9.684563
5.327463
4.056692
3.962517
3.881454
3.456473
4.344583
5.784631
9.140968
13.958812
22.008419
29.784441
40.559769
47.969818
54.521561
56.859851
55.078864
49.700737
39.940476
32.842755
22.583604
15.734434
9.468794
##ZVALUE=355
0.152588
0.150800
0.203848
0.163913
0.279546
0.125766
0.258684
0.141859
0.162721
0.250936
0.188947
0.267625
0.296831
0.261664
0.221729
0.338554
0.266433
0.228882
0.148416
0.141859
0.356436
0.355840
0.157952
0.327826
0.393987
0.247955
0.260472
0.287890
0.278950
0.145435
0.255704
0.022650
0.368953
0.301600
0.221729
0.228882
0.358820
0.203848
0.332594
0.435710
0.390410
0.322461
0.462532
0.408888
0.508428
0.317693
0.566840
0.426769
0.362992
0.457764
0.545979
0.420809
0.600815
0.550747
0.587702
0.685453
0.770688
0.774860
1.035929
3.057718
11.162758
42.749643
88.860989
186.091661
292.443633
450.671911
546.634793
619.099736
615.600944
527.727604
434.265733
285.740495
181.891918
80.461502
38.929582
12.526512
5.887747
3.892779
3.498793
3.338456
3.199577
3.154874
3.489852
4.925728
6.749630
11.983514
17.523766
27.018785
34.003854
42.953491
48.187971
51.293969
50.136447
44.722557
39.286613
30.393600
##ZVALUE=360
0.196695
0.194907
0.199676
0.259876
0.394583
0.329614
0.173450
0.185966
0.240803
0.217557
0.253916
0.393987
0.280738
0.224710
0.082850
0.279546
0.357628
0.229478
0.228882
0.235438
0.304580
0.246763
0.251532
0.278950
0.265837
0.390410
0.237823
0.383854
0.293851
0.326633
0.284910
0.397563
0.272989
0.339746
0.210404
0.324845
0.437498
0.558496
0.270605
0.325441
0.400543
0.426769
0.399947
0.320673
0.538826
0.488758
0.397563
0.464916
0.519753
0.361800
0.476837
0.426769
0.623465
0.717640
0.645518
0.557899
0.738502
0.696778
0.701547
0.884533
0.975728
1.592636
4.562736
22.296906
54.411888
135.710835
223.287940
363.036990
475.171804
581.662655
605.438948
562.011003
476.935506
326.218605
218.218565
107.263923
56.217909
20.479560
8.829832
4.040599
3.643632
3.159642
3.027916
2.779961
2.764463
3.139973
3.902912
5.719662
8.530617
14.534593
20.713806
29.745698
36.738515
43.323636
46.576858
46.159625
##ZVALUE=365
0.363588
0.184774
0.324845
0.241995
0.221729
0.378489
0.369549
0.319481
0.212789
0.196695
0.299811
0.458956
0.273585
0.404716
0.479817
0.243783
0.485778
0.496507
0.293851
0.297427
0.298619
0.415444
0.437498
0.402927
0.362992
0.350475
0.430942
0.367761
0.340939
0.507832
0.301600
0.350475
0.442863
0.318885
0.387430
0.401735
0.499487
0.412464
0.508428
0.447631
0.307560
0.508428
0.482798
0.401735
0.509620
0.538826
0.554919
0.446439
0.382662
0.557899
0.666976
0.643730
0.639558
0.655651
0.481606
0.473857
0.624657
0.665784
0.712872
0.744462
0.802875
0.878572
1.120567
1.172423
2.255440
12.123585
33.126473
90.149641
164.380670
303.217769
409.550667
525.393486
581.279993
568.434596
501.387715
366.131663
260.337591
143.721700
78.290701
28.856993
11.886954
4.578829
3.783703
3.317595
3.174543
2.981424
2.880692
2.400875
2.585649
3.307462
4.623532
7.754564
11.716485
19.096732
24.600625
32.539964
##ZVALUE=370
0.299811
0.299811
0.266433
0.322461
0.362992
0.381470
0.298619
0.296831
0.289679
0.359416
0.324845
0.411868
0.398755
0.295639
0.346899
0.234842
0.370741
0.315905
0.251532
0.270605
0.295639
0.535846
0.274777
0.286698
0.255704
0.300407
0.295639
0.297427
0.245571
0.398755
0.368953
0.478625
0.332594
0.430942
0.397563
0.336766
0.375509
0.313520
0.459552
0.471473
0.374913
0.388622
0.411868
0.357628
0.468493
0.540614
0.494719
0.462532
0.463724
0.470877
0.304580
0.178814
0.518560
0.398755
0.393987
0.605583
0.591874
0.508428
0.680685
0.613928
0.790954
0.698566
0.821948
0.792742
0.910759
0.915527
1.313686
6.753802
21.603703
65.906644
125.646591
242.235661
350.859761
485.254526
555.096865
572.856665
523.426533
410.971642
305.806994
176.901817
100.943446
40.560961
18.160939
6.423593
3.805757
3.177524
2.790689
2.619624
2.647638
2.177954
2.355576
2.366900
2.816916
4.070997
6.056428
10.231733
##ZVALUE=375
0.288486
0.312924
0.516772
0.345707
0.262856
0.304580
0.371933
0.301600
0.261664
0.284910
0.310540
0.186563
0.261664
0.285506
0.297427
0.321865
0.205636
0.140667
0.374913
0.310540
0.318885
0.497699
0.381470
0.376701
0.331998
0.311732
0.273585
0.313520
0.356436
0.431538
0.314713
0.294447
0.275970
0.192523
0.246763
0.417829
0.263453
0.412464
0.304580
0.443459
0.537634
0.368953
0.452995
0.431538
0.382662
0.387430
0.451803
0.251532
0.460744
0.533462
0.486970
0.516772
0.445843
0.522733
0.480413
0.552535
0.587702
0.500679
0.466704
0.487566
0.489950
0.545979
0.717640
0.814795
0.700951
0.610948
0.848770
0.939965
0.979900
3.341436
11.018515
39.817691
85.875988
190.321803
292.141438
431.316495
514.841676
566.163659
550.244451
455.764532
353.983641
216.983557
138.364434
68.061948
34.190416
11.238456
5.078912
3.211498
2.626777
2.621412
2.388954
2.300739
2.110600
2.211928
2.126694
2.361536
##ZVALUE=380
0.241995
0.275970
0.454783
0.434518
0.308752
0.325441
0.293851
0.343919
0.358820
0.420809
0.240803
0.356436
0.366569
0.298619
0.253916
0.364780
0.223517
0.263453
0.331998
0.277758
0.172853
0.344515
0.420809
0.364780
0.344515
0.362992
0.362992
0.442863
0.231862
0.481606
0.420809
0.307560
0.351667
0.240803
0.475645
0.335574
0.274777
0.363588
0.414848
0.434518
0.330806
0.350475
0.340939
0.331998
0.374913
0.474453
0.325441
0.452995
0.371933
0.339746
0.327826
0.328422
0.523925
0.456572
0.445843
0.564456
0.640750
0.550747
0.346899
0.362992
0.446439
0.562668
0.620484
0.525713
0.743866
0.663996
0.677705
0.776649
0.744462
0.869632
1.179576
1.653433
7.745624
23.771524
71.317554
132.021904
250.260830
359.533429
489.620566
546.830893
553.046465
501.095653
394.266844
294.807553
174.818635
103.109479
43.591857
20.112991
6.343722
3.429651
2.806783
2.487898
2.344847
2.549887
2.202988
2.122521
##ZVALUE=385
0.344515
0.321865
0.388622
0.246763
0.100732
0.333786
0.217557
0.418425
0.475645
0.180602
0.348687
0.237823
0.362992
0.365973
0.165701
0.181794
0.336766
0.310540
0.409484
0.314713
0.306964
0.132918
0.241995
0.324845
0.233650
0.388622
0.334978
0.243783
0.316501
0.344515
0.371933
0.316501
0.198483
0.337958
0.314713
0.265837
0.306964
0.359416
0.315905
0.474453
0.383854
0.403523
0.297427
0.203848
0.344515
0.447631
0.417829
0.442863
0.349879
0.356436
0.346899
0.268817
0.323653
0.300407
0.305772
0.421405
0.404716
0.471473
0.526905
0.445843
0.459552
0.475645
0.486970
0.501871
0.433922
0.628829
0.599623
0.373721
0.636578
0.940561
0.845790
0.796914
0.948906
1.152754
2.829432
15.438795
40.978789
103.299618
183.079839
318.036675
420.919657
521.812439
550.578833
528.112650
463.127494
341.966748
242.708921
133.816004
75.706840
30.509830
12.725592
4.072785
2.889633
2.668500
2.777576
2.485514
##ZVALUE=390
0.256896
0.304580
0.327826
0.209808
0.249743
0.219941
0.262856
0.333786
0.226498
0.325441
0.212789
0.325441
0.351667
0.341535
0.389814
0.136495
0.329614
0.214577
0.248551
0.173450
0.272989
0.275970
0.272989
0.273585
0.371933
0.377893
0.260472
0.137687
0.421405
0.249743
0.312924
0.376701
0.213981
0.417829
0.280738
0.375509
0.339746
0.202656
0.331998
0.408888
0.485778
0.234842
0.315905
0.281930
0.299811
0.351667
0.286698
0.327826
0.417829
0.440478
0.408888
0.421405
0.437498
0.384450
0.307560
0.502467
0.427961
0.497699
0.468493
0.343919
0.411868
0.365973
0.379682
0.666976
0.405908
0.636578
0.425577
0.574589
0.726581
0.784993
0.967979
0.839829
0.673532
0.887513
0.781417
1.001954
1.478791
8.090734
25.548935
78.226924
146.085620
270.336866
368.309617
477.362871
536.097884
551.889539
510.631800
404.814482
311.539769
191.105604
112.103820
46.438575
21.223426
6.391406
3.424883
2.703667
##ZVALUE=395
0.215769
0.343919
0.213981
0.244975
0.316501
0.315905
0.372529
0.389814
0.340939
0.459552
0.301600
0.213981
0.236630
0.191927
0.279546
0.460744
0.225902
0.305772
0.300407
0.274777
0.231862
0.177622
0.294447
0.226498
0.318885
0.308752
0.157952
0.258684
0.248551
0.334978
0.299811
0.322461
0.378489
0.309944
0.260472
0.430942
0.384450
0.297427
0.445843
0.430942
0.354648
0.358820
0.356436
0.346899
0.558496
0.381470
0.503659
0.383854
0.420809
0.283718
0.382662
0.469685
0.506639
0.320673
0.267625
0.347495
0.205636
0.264645
0.540614
0.352859
0.533462
0.347495
0.443459
0.496507
0.358820
0.431538
0.536442
0.408888
0.621676
0.716448
0.574589
0.732541
0.759959
0.845790
0.759959
0.763535
0.975728
0.900626
1.168847
4.208684
15.648603
54.302812
106.647611
210.651755
307.804942
440.307856
520.694852
568.730831
552.291870
467.041731
368.001461
228.165984
146.317482
69.601536
33.672452
11.349916
##ZVALUE=400
0.364780
0.463724
0.314713
0.373721
0.284910
0.315905
0.254512
0.204444
0.160933
0.235438
0.119805
0.278950
0.309944
0.237823
0.344515
0.357628
0.378489
0.121593
0.303984
0.340939
0.319481
0.204444
0.266433
0.265837
0.322461
0.199676
0.234842
0.237823
0.161529
0.181794
0.234842
0.283718
0.238419
0.325441
0.206828
0.476837
0.331998
0.457764
0.404716
0.493526
0.396967
0.456572
0.353456
0.385642
0.324845
0.233650
0.304580
0.423789
0.443459
0.513792
0.351667
0.394583
0.359416
0.280738
0.451803
0.442863
0.592470
0.421405
0.307560
0.524521
0.389814
0.457764
0.468493
0.569820
0.556707
0.502467
0.606775
0.446439
0.490546
0.867844
0.675917
0.804663
0.699759
0.782609
0.545979
0.696778
0.660419
0.760555
0.712872
1.015663
1.036525
2.494454
8.693933
31.533837
68.242550
154.956579
244.708657
378.050804
465.644598
544.332862
551.636815
485.512614
401.159525
266.701579
176.394582
90.181828
##END
