##TITLE=FDDW2
##FORMAT=SPECTACLE-ASCII V-1.2
##DATA TYPE=ULTRAVIOLET SPECTRUM
##SECOND TYPE=ULTRAVIOLET SPECTRUM
##DATE=02/08/18
##TIME=15:22:58
##SPECTROMETER/DATA SYSTEM=SPECTACLE
##XUNITS=NM EM
##YUNITS=ENERGY
##YFACTOR=1
##FIRSTX=220
##LASTX=410
##NPOINTS=96
##3DDATA=Equidistant
##ZUNITS=NM EX
##FIRSTZ=210
##LASTZ=400
##ZPOINTS=39
##XYDATA=(Y..Y)
##ZVALUE=210
12.798905
13.555884
11.319518
10.610819
11.173487
9.654760
8.571744
7.177591
6.188750
4.726648
3.790855
3.449917
2.684593
2.323985
2.205968
1.920462
2.746582
2.501607
2.200603
2.315640
1.924634
2.443790
2.795458
3.678799
4.287958
5.970597
6.866455
11.232495
14.250875
18.287897
20.374656
22.994876
25.420785
30.361414
30.546784
30.885935
31.889677
33.135414
29.764771
28.508902
27.277470
27.038455
24.968982
24.430752
22.275448
21.356940
18.208623
18.976927
16.718507
15.097857
14.293790
14.662743
13.259649
11.693835
11.734962
10.791421
10.368824
8.785725
9.198785
8.718967
8.424520
8.248687
6.809831
6.139874
7.061958
6.833673
7.352829
6.617904
7.344484
6.899834
8.014441
7.576942
8.585453
9.812713
9.835958
10.503531
9.723902
10.614991
9.266734
9.475946
8.728504
7.919669
5.993843
4.657507
5.048513
4.875660
4.375577
5.231500
4.328489
5.846620
7.359982
10.173917
14.369488
16.627908
22.603869
26.371479
##ZVALUE=215
35.874844
35.627484
28.701425
22.442937
20.145774
17.411709
15.265942
14.127493
14.669895
14.450550
11.368990
8.760691
6.112456
4.366636
3.155470
2.435446
2.198815
2.053976
2.243519
2.645850
2.513528
2.841949
3.296733
3.062487
5.034804
5.727410
7.727742
11.161566
17.069578
20.197630
23.628473
27.421713
32.156706
35.956502
36.777854
37.967563
38.313866
38.632751
38.357973
36.559701
33.704638
33.297539
30.217767
26.767850
26.271939
24.066567
21.432638
22.491813
19.095540
17.988682
18.559694
16.694665
14.187694
14.168620
12.103915
12.917519
11.784434
11.256933
10.658503
9.457469
7.972717
8.473992
8.940697
8.068681
8.476973
7.149577
7.003546
7.589459
6.841421
7.327795
7.830858
8.477569
9.248853
9.899735
9.871721
10.856986
9.431839
9.503961
8.922815
8.144975
7.809997
7.163882
5.800724
5.502701
4.705787
4.520416
4.709959
4.111528
4.406571
4.153848
4.032850
3.620982
4.397631
4.741549
7.672906
9.006858
##ZVALUE=220
80.005527
82.111955
76.649785
66.995621
56.285858
42.059422
33.617616
27.086735
26.016831
26.052594
22.423863
23.518801
22.200942
18.476844
13.375878
11.336803
6.177425
4.527569
2.662539
2.678633
2.844930
3.212690
2.724528
3.779531
4.945993
7.329583
10.498762
14.621615
19.439459
25.071502
28.385520
33.540726
38.363934
42.708516
42.687654
40.908456
45.864582
44.237971
44.400692
42.369962
39.769411
35.313964
34.719706
30.982494
31.324625
27.956963
27.024746
24.983883
22.980571
19.829869
19.538999
19.806623
15.734434
15.297532
15.288591
14.441609
12.839437
13.248920
12.712479
11.347532
11.595488
9.580851
10.050535
9.498000
8.911490
9.080768
8.325577
7.696748
7.757545
7.970929
8.511543
8.661747
10.757446
8.970499
9.775758
10.685921
9.864569
9.396672
8.999705
8.016825
9.363890
7.375479
6.524920
6.140471
5.697608
5.423427
5.582571
4.848838
5.105734
4.712939
3.987551
4.097819
3.797412
4.506707
3.649592
3.852844
##ZVALUE=225
103.666782
104.504824
124.990940
134.437680
127.968788
117.274523
97.459555
80.684423
57.173967
44.060946
39.189458
40.032864
41.336417
39.169788
40.833950
31.859875
28.604865
21.085739
14.182925
9.133816
6.704926
4.076958
3.840923
3.691912
5.510449
5.912781
9.742975
13.713837
18.307567
21.229982
26.104450
29.542446
32.717586
38.419962
40.775537
40.048957
41.263700
37.893653
37.053823
38.451552
36.944747
32.844543
34.159422
31.116605
27.554631
25.486946
24.137497
23.997426
22.833943
21.057725
19.001961
17.125607
17.146468
15.757680
15.636683
12.421608
13.082623
13.421774
10.856986
10.543466
10.605454
9.989738
10.292530
10.679960
9.214878
9.440780
8.888841
8.253455
8.860826
9.005666
8.410811
8.202791
9.310842
10.551810
9.259582
10.434985
9.708405
10.004640
9.085536
8.444786
7.511973
6.274581
6.503463
5.983710
6.080866
5.133748
4.811883
5.453825
4.918575
4.836917
4.267693
5.036592
4.891753
3.972650
4.801750
3.611445
##ZVALUE=230
65.971613
72.652698
105.312467
149.821639
184.857845
204.995871
219.435692
194.752812
166.966915
143.415928
96.163750
76.462626
62.259436
57.438612
63.983798
65.395832
62.002540
60.281754
51.786900
41.543841
31.885505
19.246936
12.141466
7.162690
5.767941
7.349849
7.455945
9.448528
12.284517
13.585687
16.114712
19.752979
22.973418
23.260713
26.380420
27.135611
27.895570
25.502443
26.473999
24.434924
24.657845
24.399757
24.298429
20.863414
20.475984
19.211769
17.442703
16.406775
15.157461
15.602708
13.630986
15.624762
13.678670
12.045503
13.716817
12.232661
11.680722
10.647774
11.121631
11.103749
10.346770
8.953810
9.683967
8.921623
9.083748
9.380579
8.536577
9.213686
8.988976
8.763671
10.174513
9.592772
9.832978
10.581613
10.488629
11.007786
10.390878
9.195805
8.731484
9.017587
8.712411
8.278489
7.531643
7.960796
6.380677
5.809665
6.051660
6.617904
6.266832
5.892515
5.977750
5.035996
6.214976
5.432963
5.091429
4.685521
##ZVALUE=235
18.935800
23.756623
42.365789
93.156695
146.041512
215.441585
256.016850
327.184796
334.206820
335.716605
283.561945
231.039524
159.312487
120.280981
87.011456
83.109736
84.707737
92.487931
96.232891
91.900826
82.638860
68.935752
52.777529
38.045645
25.036931
13.800859
11.327863
9.492636
8.399487
9.689927
10.112524
11.950731
12.280941
14.258623
15.305877
14.664531
14.375448
13.648868
15.246868
15.584826
15.608668
14.385581
14.259815
13.009906
13.651848
14.078617
13.789535
14.318824
13.114810
13.072491
11.651516
11.927485
11.069775
10.348558
10.717511
11.559725
11.365414
10.799766
10.197759
10.995865
10.146499
10.280609
9.818673
9.270906
9.381771
9.871721
9.582639
9.974837
10.300875
9.135604
9.355545
9.783506
10.761619
11.723638
12.306571
11.765957
10.506511
11.238456
10.379553
8.929968
8.911490
8.577704
7.554889
8.576512
8.564591
7.590652
6.243587
6.813407
6.527901
6.450415
7.057786
7.070899
6.984472
6.076694
6.606579
5.912781
##ZVALUE=240
1.584888
1.720786
6.877780
18.911958
38.337708
90.400577
149.480700
238.457918
312.618613
384.391546
423.346758
417.685509
372.404456
293.135643
227.842927
150.052905
118.548870
97.430944
88.353753
100.676417
110.240579
114.658475
109.740496
97.511411
81.390738
60.066581
41.502714
29.468536
19.201636
14.376640
10.577440
9.827614
10.543466
9.970665
9.955764
10.186434
11.621714
10.938644
10.972619
10.614991
11.416674
11.494756
11.179447
11.095405
10.986924
10.735989
11.116862
10.564923
10.188818
11.224747
9.247661
10.445714
9.707808
9.767413
10.091662
9.868741
9.250641
9.116530
8.828640
9.799600
8.278489
8.481741
9.326935
8.473992
8.687973
8.045435
8.741617
7.914901
8.253455
9.006858
9.005666
10.592937
10.135770
10.752678
10.688901
10.588765
10.666847
9.418726
9.720922
9.067655
9.749532
7.601976
7.656813
7.820725
6.999969
7.634759
7.640719
6.714463
7.276535
6.656647
6.923676
7.372499
6.425977
7.556677
6.241798
6.243587
##ZVALUE=245
1.389980
1.308918
1.383424
1.394749
3.882647
10.639429
37.298799
71.567893
149.480700
223.692656
331.499577
414.581895
473.199487
490.218997
462.664962
384.395719
309.406519
215.199590
151.089430
102.777481
90.874434
94.772577
109.228492
120.971799
125.648975
120.322704
107.392669
94.409585
71.267486
52.487850
38.185716
25.528669
18.646717
12.863874
12.977719
12.522936
12.739897
12.932420
12.617707
12.310743
11.651516
12.704730
11.035800
11.846423
11.413693
11.381507
10.668635
10.593534
10.696650
10.929704
10.290742
9.891987
9.465814
9.059906
8.832812
9.326935
8.346438
8.497834
8.443594
7.742643
7.818937
7.075667
6.847978
7.063746
6.896853
6.691813
6.977916
7.268786
7.066727
7.841587
7.247925
8.743405
9.192824
9.699464
9.381771
9.334683
8.450747
7.574558
8.210540
7.223487
7.570982
7.278919
7.515550
6.913543
6.781816
6.584525
7.218719
7.133484
5.630851
6.108880
6.066561
6.157756
6.194711
5.878806
5.619526
5.570650
##ZVALUE=250
1.069903
1.170635
1.269579
1.123548
1.322627
1.589656
1.571774
7.263422
20.815730
57.672858
113.392472
217.967629
303.834677
427.012444
497.884750
541.494489
539.291501
469.833612
400.185585
270.759463
193.472505
135.539770
93.564987
85.973740
101.517439
115.807652
129.086971
134.344697
129.559636
119.469762
98.518729
81.854463
62.308908
42.240620
30.163527
21.057725
18.084645
17.280579
16.062856
15.494823
14.483929
15.504956
16.519427
13.913512
14.588833
14.473796
12.941957
13.478994
13.419986
12.171865
11.925697
9.885430
10.618567
10.778904
8.588433
9.848475
9.865761
8.961558
8.118749
8.487701
8.086562
7.586479
7.143617
7.459521
6.986856
7.149577
7.097721
6.737709
6.829500
7.233620
7.722974
7.180572
7.095933
7.792711
7.440448
8.033514
7.622838
7.160902
6.111860
6.746650
6.660819
6.543994
5.915761
6.109476
5.799532
6.123781
5.403757
5.661845
5.159974
4.701614
5.139709
5.140901
4.961491
5.057454
4.317760
5.107522
##ZVALUE=255
0.927448
0.866652
0.834465
1.060963
1.027584
1.201630
1.410842
1.561642
1.605749
3.492832
16.277432
40.505528
81.223845
174.736977
269.547701
403.464437
495.249629
580.137968
599.504709
556.100011
482.782722
388.897657
248.272419
162.213445
99.051595
81.513524
87.218881
100.477934
126.147866
139.166713
147.029757
141.992569
130.983591
112.414956
89.537501
64.124465
50.931573
35.863519
27.540922
21.919608
20.499825
19.269586
19.532442
18.738508
18.357635
17.157793
15.790462
16.445518
15.029907
14.247894
14.130473
12.039542
12.728572
11.521578
10.831952
10.571480
10.162592
9.227991
9.048581
8.759499
8.165836
8.392930
8.270741
7.833838
7.525682
6.691813
6.988645
6.379485
6.642938
6.637573
6.583929
6.609559
6.682873
7.318854
6.863475
6.719828
6.755590
6.469488
6.150603
5.624890
5.735755
6.155968
5.071759
5.373955
4.580617
4.645586
4.475713
5.188584
5.097985
4.234910
4.443526
4.818439
4.398823
4.182458
4.057884
4.103780
##ZVALUE=260
1.060963
0.919700
0.931621
1.214743
0.999570
1.115799
1.073480
0.974536
1.119971
1.061559
1.247525
2.372861
7.105470
29.621720
60.085654
114.064813
229.428411
332.290530
487.427711
580.185652
658.291578
653.782487
567.090511
460.665822
377.351642
215.477943
141.869783
91.203451
77.207685
88.454485
107.817650
136.358738
150.904655
159.570575
158.567429
141.284466
124.726892
95.476508
77.512860
55.355430
42.254925
32.166839
27.866960
25.113821
24.090409
22.108555
20.608902
18.911958
18.882751
18.091798
16.251802
15.561581
14.391541
14.249682
12.617707
11.894703
11.444688
10.614991
9.845495
9.493828
9.515882
8.744597
8.275509
7.709861
7.540584
7.003546
6.859899
6.708503
6.650686
6.884933
5.986691
6.708503
6.617904
6.678700
6.121993
6.460547
6.237626
5.743504
5.552769
4.969835
5.376935
4.844666
4.251599
4.475713
4.658699
4.282594
3.850460
3.848672
4.201531
3.738999
4.054904
4.115701
4.051924
3.667474
3.676414
3.795624
##ZVALUE=265
0.820756
0.810623
0.969768
0.832677
0.795722
0.974536
0.922680
1.095533
1.192689
1.020432
1.130700
1.080632
1.274943
1.681447
3.556609
16.580820
41.741729
103.465915
179.255605
327.608585
460.430980
577.662587
686.997771
711.401701
638.453960
544.754863
410.071015
294.305682
178.050995
117.180943
85.201859
81.844926
93.994737
125.319958
143.898726
166.177750
170.901418
162.267685
152.273774
123.728514
102.483630
76.544881
59.623718
42.126775
34.126639
27.476549
25.094748
23.273826
21.966696
19.269586
19.036531
17.267466
16.066432
14.721751
14.099479
13.335943
11.892915
11.212826
10.565519
9.986758
9.319782
8.866787
8.297563
7.972717
7.421970
7.471442
6.675720
6.771684
6.628633
6.642938
6.639957
6.326437
6.491542
5.904436
5.881786
6.071925
5.474687
5.551577
4.847646
5.282760
4.842877
4.535913
4.432797
4.040599
4.285574
4.258752
4.057884
3.767610
3.659725
3.491640
3.666878
3.588796
3.686547
3.221631
3.352761
3.761649
##ZVALUE=270
0.752807
0.759959
0.862479
0.593662
1.048446
0.894666
0.904799
0.699759
0.891685
0.753999
0.993609
0.998974
1.011491
1.127720
1.301765
1.284480
1.727939
7.570982
23.026466
72.743893
141.570568
243.864655
419.671535
551.773906
687.807798
738.224983
717.623830
658.844709
518.395901
393.375754
275.053978
157.132745
105.118752
77.327490
80.879927
104.592443
125.386715
149.137974
164.395571
169.930458
165.852904
147.166848
127.219558
99.232793
76.815486
52.739978
39.947629
30.387640
25.428534
20.418763
19.286871
17.869473
17.237663
15.603900
13.671517
12.714863
12.755990
11.150837
11.007786
9.988546
9.550452
8.654594
8.381605
7.563829
7.984638
7.150769
7.316470
6.598830
6.755590
6.100535
6.182790
6.351471
6.476641
6.324649
6.303787
5.492568
5.463958
4.994869
4.993677
4.586577
4.221797
4.489422
4.444718
4.090667
4.087687
4.259944
4.331470
3.515482
3.532767
3.459454
3.379583
3.435612
3.464818
3.503561
3.135800
3.133416
##ZVALUE=275
0.674725
0.784993
0.741482
0.588894
0.659823
0.758767
0.548959
0.438690
0.549555
0.884533
0.817776
1.115799
1.072884
1.217723
1.034737
1.026988
1.126528
1.185536
1.212955
3.487468
14.497638
39.745569
111.481547
204.255581
368.207693
493.263006
641.008019
728.702545
766.767859
727.110505
639.511943
477.549434
343.054533
193.192959
123.560429
73.121786
63.251853
76.429844
93.461871
118.770003
139.547586
155.952573
163.545609
153.655410
140.631795
112.601519
92.830658
67.613721
50.599575
34.242868
25.720000
18.997788
15.748739
14.045835
12.476444
11.977553
11.312962
10.516644
10.153651
9.378791
9.165406
8.157492
8.198619
7.359982
7.386804
6.709695
6.629825
6.588697
6.142855
6.001592
5.840659
5.850792
5.964637
5.799532
5.749464
5.371571
5.500913
5.483627
4.835725
4.563928
4.098415
4.403591
4.338622
4.018545
3.987551
4.048944
3.703833
3.373623
3.862977
3.220439
3.631711
3.388524
3.054738
3.060699
3.359914
3.202558
##ZVALUE=280
0.687838
0.636578
0.556707
0.452995
0.689626
0.530481
0.624657
0.772476
0.763535
0.661612
0.716448
0.745654
0.841618
0.724792
0.673532
0.736713
1.038909
0.970960
1.041889
1.216531
1.418591
1.691580
8.695722
28.514862
87.328553
158.872008
292.156935
419.954658
597.629547
700.746775
767.277479
754.976869
687.260032
526.839495
395.673513
231.487751
142.870545
74.115992
49.369931
47.684908
61.153769
83.495975
107.590556
132.095814
143.114924
147.831440
144.665837
126.463771
107.494593
82.008839
61.842799
40.505528
28.094649
17.948747
13.256669
10.061860
8.919835
8.526444
8.227825
7.490516
7.493496
7.490516
6.583929
6.641746
6.474853
6.431937
5.871654
5.803704
5.817413
5.755424
5.484819
5.368590
5.737543
5.474687
4.932880
5.277991
5.337596
4.826784
4.623532
4.889965
4.137754
4.324913
3.883839
4.066825
3.786683
3.479719
3.681779
3.738999
3.491640
3.455877
3.221631
3.541708
3.241897
3.111959
3.376603
3.156662
##ZVALUE=285
0.838637
0.704527
0.763535
0.720620
0.998974
1.020432
0.794530
1.021624
0.910759
1.002550
0.982881
0.912547
0.958443
0.949502
0.786781
0.944734
1.034737
0.950694
1.043677
1.146793
1.318455
1.427531
1.433492
1.683831
4.856586
15.591979
51.466823
105.455518
220.807791
335.784554
461.485982
633.407831
736.310482
779.634714
738.294721
603.143573
478.582978
299.176574
190.566778
93.961954
52.148700
31.802654
35.309792
52.090883
70.781708
98.888874
115.581751
130.596757
138.952732
135.341883
123.421550
100.610852
82.328916
56.379437
39.658546
23.150444
16.095638
9.828806
8.059740
6.457567
6.736517
6.183982
5.978942
6.159544
5.697608
5.227923
5.710721
5.403757
5.872846
5.540848
5.611777
5.691648
5.330443
4.985929
5.052686
4.983544
4.772544
5.058646
4.851818
4.506707
4.727840
4.100800
4.099607
3.868937
4.028678
4.136562
3.774762
3.762841
3.543496
3.905892
3.759861
3.426671
3.475547
3.414750
3.313422
3.474951
##ZVALUE=290
0.534654
0.665784
0.534654
0.546575
0.614524
0.437498
0.563860
0.631809
0.676513
0.684857
0.740886
0.685453
0.599623
0.790954
0.657439
0.849962
0.711679
0.852942
0.831485
1.016855
0.945926
0.999570
0.961423
0.997782
1.212955
1.550913
1.718998
5.740523
28.856993
66.344738
127.720833
257.770419
392.018557
582.246780
691.577792
777.343512
773.707032
671.683550
551.314950
371.258855
246.775746
125.914812
67.831874
30.544996
23.646951
32.652617
44.916868
65.808892
84.076524
109.504461
122.879744
131.246448
129.187703
115.585923
97.423792
72.692633
54.333806
34.584999
22.523999
13.074875
9.066463
6.394982
5.175471
4.964471
4.894733
4.874468
4.603863
4.574656
4.781485
4.585981
5.024672
4.794598
4.850626
4.929900
4.923940
4.618764
4.659891
4.586577
3.928542
4.018545
3.942847
3.682971
3.860593
3.471971
3.824830
3.528595
3.682971
3.673434
3.774762
3.249645
3.370643
3.416538
3.456473
3.361702
3.036857
3.098845
##ZVALUE=295
0.643730
0.508428
0.563860
0.539422
0.414848
0.679493
0.519753
0.696778
0.684857
0.704527
0.693798
0.602603
0.562668
0.594854
0.607967
0.700951
0.736713
0.718832
0.580549
0.686646
0.793934
0.814795
0.809431
1.129508
1.039505
1.105666
1.229644
1.342893
1.571774
2.722740
14.424920
40.989518
92.704892
210.022926
333.690643
518.303514
638.880730
752.511621
774.060488
714.944005
617.077947
445.519686
310.642719
164.876580
91.203451
36.375523
20.683408
19.645691
26.543736
42.105913
58.449507
81.801414
99.734664
117.057562
123.589635
120.810866
110.539794
91.033578
72.418451
49.544573
35.512447
20.871758
13.532639
7.717609
5.588531
4.365444
4.358888
4.433990
3.929734
4.108548
4.403591
4.081726
4.162788
4.499555
4.483461
4.197955
4.171729
4.271865
3.967881
3.850460
4.153848
3.554821
3.665686
3.360510
3.583431
3.679991
3.640652
3.429651
3.360510
3.435612
3.359914
3.397465
3.261566
3.325939
3.196597
3.225803
##ZVALUE=300
0.442863
0.632405
0.607967
0.701547
0.505447
0.403523
0.470877
0.558496
0.569820
0.488758
0.536442
0.566840
0.549555
0.573993
0.532866
0.760555
0.674725
0.900626
0.837445
0.702739
0.748634
0.725985
0.736713
0.796914
0.705719
0.920892
1.062751
1.078844
1.110435
1.281500
1.464486
1.557469
4.101992
23.196936
57.665706
147.237778
247.834921
427.081585
561.471581
707.697868
764.476657
749.851465
674.486756
517.563820
380.096436
211.140513
126.929879
58.959723
28.946996
14.485717
15.039444
24.039745
34.097433
53.786635
72.215796
94.657540
107.668638
117.125511
115.475655
105.956793
90.635419
68.052411
52.121878
33.175945
21.652579
12.093782
7.752776
4.900694
4.487634
3.907681
3.613830
3.768802
3.730655
4.023910
3.964901
3.990531
3.648996
3.751516
3.821850
3.419518
3.654957
3.541708
3.664494
3.643632
3.558993
3.512502
3.434420
3.501773
3.292561
3.056526
3.258586
3.358722
3.113747
2.919436
3.063679
3.170967
##ZVALUE=305
0.408888
0.354648
0.529885
0.577569
0.428557
0.508428
0.464916
0.598431
0.395775
0.427961
0.407696
0.426769
0.554919
0.350475
0.405908
0.512600
0.550747
0.608563
0.476837
0.598431
0.590682
0.657439
0.643730
0.733733
0.711679
0.736713
0.771880
0.769496
1.033545
1.041889
0.979900
1.193881
1.088977
1.342893
2.234578
12.885928
36.123991
104.885697
188.208818
342.122912
480.221510
646.024942
736.252666
764.987469
712.855458
564.115644
440.300703
280.150771
173.882842
80.711842
40.913820
15.919805
10.966659
14.366508
20.467639
35.610795
49.185753
71.001649
86.699724
102.960467
109.620690
106.135607
100.500584
83.838701
67.904592
46.781898
32.963753
19.896626
12.345910
7.264614
5.223751
3.981590
3.983974
3.816485
3.509521
3.449917
3.310442
3.157854
3.466606
3.256798
3.279448
3.365874
3.379583
3.391504
3.499985
3.398657
3.040433
3.317595
3.335476
3.152490
3.384948
3.101826
3.211498
3.004670
3.015995
2.852678
##ZVALUE=310
0.486970
0.365973
0.338554
0.443459
0.505447
0.463724
0.575781
0.677705
0.510812
0.384450
0.552535
0.557899
0.568628
0.536442
0.497699
0.628829
0.718832
0.420809
0.622869
0.645518
0.774860
0.536442
0.680685
0.697970
0.622869
0.807643
0.665784
0.788569
0.840425
0.830889
0.854731
0.992417
1.005530
1.154542
1.041889
1.336932
1.551509
5.732775
18.932819
63.639879
125.537515
255.142450
384.618640
565.057993
678.750873
759.427547
744.176507
646.988750
530.888438
361.975431
242.173672
122.103691
65.639615
24.118423
11.594892
9.193420
11.487603
19.097924
28.312802
44.724941
59.707761
79.987645
92.220902
101.940632
104.119778
94.741583
82.775950
65.211654
48.941970
31.849742
21.405816
11.954904
8.083582
5.168915
3.865957
3.441572
3.266931
3.456473
3.301501
3.188848
3.136992
3.430843
3.257990
3.066659
3.238916
3.252625
3.346801
3.188848
3.220439
3.347993
3.302693
3.295541
3.024936
3.248453
3.033876
3.061891
##ZVALUE=315
0.518560
0.462532
0.368953
0.445843
0.441670
0.451803
0.435710
0.411868
0.472665
0.414848
0.463724
0.554919
0.675917
0.391603
0.558496
0.421405
0.521541
0.470877
0.486970
0.587702
0.627637
0.561476
0.530481
0.769496
0.656843
0.617504
0.872612
0.754595
0.710487
0.807643
0.793934
0.705719
0.953674
0.833869
0.904799
1.098514
1.105666
1.285672
1.398921
2.564788
9.460449
38.352609
86.049438
199.225545
318.881869
508.452654
633.054972
745.841861
771.643519
709.964037
605.107546
434.140563
306.209922
162.274837
89.609623
33.762455
14.702678
7.544756
7.445812
11.663437
16.173720
27.235746
39.020777
57.284832
72.224736
88.675618
96.145868
97.336769
91.105700
76.468587
62.875748
45.420527
32.295585
19.122958
12.549758
6.878972
4.976988
3.948808
3.315806
3.097653
3.090501
2.935529
3.045797
3.083944
2.872944
3.229976
3.074408
3.070831
3.035665
3.079772
3.155470
3.037453
2.994537
3.173947
3.167987
3.105998
##ZVALUE=320
0.394583
0.361800
0.384450
0.423789
0.358820
0.388622
0.438690
0.529885
0.542998
0.478625
0.509620
0.599623
0.439882
0.451803
0.501871
0.526905
0.543594
0.465512
0.601411
0.534654
0.609756
0.574589
0.639558
0.675917
0.608563
0.603795
0.566840
0.657439
0.727773
0.790954
0.538826
0.637770
0.732541
1.004934
0.826716
0.837445
0.985861
1.162887
1.127720
1.173615
1.241565
1.455545
4.188418
21.192431
53.750873
141.576529
237.165689
400.903821
536.894798
695.048571
758.823752
751.670003
672.975779
509.902835
372.537971
206.132531
118.937492
51.457882
23.465753
8.955598
6.626844
7.053614
9.272695
15.518665
22.643805
37.085414
51.280856
68.130493
80.836415
91.018677
91.091990
85.839629
75.702667
58.224797
44.577718
28.612614
19.322634
11.420846
7.501841
4.569888
3.667474
3.421903
3.254414
2.886653
2.896786
2.883673
3.025532
2.840757
3.057718
3.088713
2.931952
3.004670
2.937913
2.907515
2.971888
2.811551
##ZVALUE=325
0.438690
0.373721
0.396967
0.386834
0.464916
0.492930
0.412464
0.485778
0.409484
0.342727
0.551939
0.380874
0.413656
0.404716
0.516772
0.428557
0.348687
0.482798
0.473857
0.515580
0.363588
0.517964
0.451803
0.612736
0.625849
0.553727
0.668764
0.466704
0.528693
0.556707
0.682473
0.624657
0.639558
0.640750
0.799894
0.599623
0.768900
0.838637
0.801682
0.904799
0.986457
1.064539
1.147985
1.361966
2.430677
13.524890
34.961700
93.340874
170.053840
321.916938
454.130769
622.439981
705.811977
744.253993
698.480010
552.618504
417.901874
254.972577
154.178739
68.359971
33.541918
11.622906
6.956458
5.917549
6.382465
9.404421
13.855696
23.085475
33.662915
51.991940
63.732862
77.713728
84.615946
86.268783
80.075860
67.389607
54.877996
39.611459
28.088689
16.772747
11.107922
6.271601
4.544854
3.800988
3.475547
2.989769
3.003478
2.643466
2.924800
2.653599
2.728701
2.902746
3.003478
2.749562
2.879500
2.930760
##ZVALUE=330
0.411868
0.453591
0.386834
0.410676
0.393987
0.290871
0.492930
0.473857
0.361800
0.431538
0.501871
0.513792
0.398755
0.645518
0.581741
0.565648
0.541806
0.686646
0.492930
0.532866
0.464916
0.365973
0.510812
0.612736
0.493526
0.508428
0.709891
0.596642
0.560880
0.589490
0.770688
0.622869
0.710487
0.560880
0.687838
0.600815
0.664592
0.648499
0.862479
0.840425
0.798702
1.061559
1.013875
0.973940
1.067519
1.055598
1.502633
6.003976
19.029975
61.972737
121.969581
244.738460
365.418792
533.783436
644.158721
717.667937
700.148940
595.325828
476.907492
311.159492
199.282765
93.572736
48.431754
18.001795
8.518696
5.568862
5.511642
6.208420
8.109808
14.110804
20.649433
32.685995
44.690967
61.585903
71.886778
79.407692
79.078674
73.583722
64.937472
49.050450
37.844777
24.435520
17.322898
10.564923
7.281899
4.734993
3.585815
3.153682
3.056526
3.025532
2.779961
2.697706
2.615452
2.586842
2.610683
2.466440
##ZVALUE=335
0.438690
0.257492
0.424981
0.353456
0.482798
0.521541
0.502467
0.536442
0.534654
0.646710
0.498891
0.350475
0.372529
0.570416
0.347495
0.507832
0.484586
0.519753
0.476837
0.396967
0.460744
0.596642
0.460744
0.570416
0.502467
0.644922
0.632405
0.585914
0.496507
0.550747
0.583529
0.656843
0.551939
0.598431
0.652671
0.622869
0.703931
0.470877
0.597835
0.696778
0.577569
0.717640
0.752807
0.655651
0.829697
0.949502
1.136661
1.090765
1.128912
2.799630
9.429455
37.860870
80.136657
180.546641
290.800929
459.687710
576.581955
676.499605
694.629550
629.462004
529.274940
358.145833
245.398879
129.709840
68.579912
25.480986
10.733604
5.464554
4.906654
5.197525
5.663633
8.305907
11.880994
20.679832
29.710531
44.777989
56.352615
68.008900
73.629618
74.414611
69.789886
59.190989
49.464703
35.184622
26.421547
16.990900
11.352897
7.213950
4.864931
3.454685
2.951622
2.924800
2.753735
2.755523
2.565980
2.550483
##ZVALUE=340
0.362992
0.392795
0.358820
0.457764
0.335574
0.352859
0.287890
0.486970
0.305772
0.406504
0.490546
0.383854
0.433922
0.407696
0.365973
0.590682
0.408888
0.603795
0.481606
0.516772
0.406504
0.494719
0.578761
0.476837
0.424981
0.514984
0.586510
0.391603
0.784993
0.702739
0.692606
0.617504
0.588894
0.528693
0.479817
0.662804
0.708699
0.523925
0.680685
0.720620
0.681877
0.777841
0.788569
0.867844
0.838637
0.822544
0.932813
0.867844
0.975728
0.988841
1.233816
1.639724
4.669428
22.794604
55.452585
138.096809
233.376622
383.420587
502.997637
623.959899
669.202805
636.861920
558.147430
416.724682
293.542743
154.940486
86.604953
35.207868
14.668703
5.977750
4.975796
4.626513
4.822612
5.608797
7.494688
12.180805
18.363595
29.634833
40.287971
54.305792
62.666535
69.990754
69.603920
65.146685
57.797432
45.651793
35.774708
25.017858
17.739534
10.985732
7.305741
4.497766
3.478527
2.787709
2.503991
2.614856
##ZVALUE=345
0.301600
0.451803
0.302792
0.373721
0.510812
0.422597
0.255704
0.396967
0.351667
0.373721
0.362992
0.473857
0.351667
0.451803
0.355840
0.449419
0.309944
0.327826
0.476837
0.298619
0.417829
0.477433
0.391603
0.340939
0.537634
0.524521
0.562668
0.454783
0.394583
0.421405
0.441670
0.463724
0.601411
0.537634
0.476837
0.462532
0.557899
0.486970
0.619888
0.563860
0.542998
0.701547
0.487566
0.652671
0.652671
0.702739
0.783801
0.805855
0.866652
0.836849
0.796914
0.986457
0.890493
1.132488
2.701879
9.953976
38.190484
82.345605
180.656910
277.795792
432.382822
538.890958
633.546710
649.581552
583.874583
488.506556
334.975719
220.181942
102.440715
50.913692
18.832684
8.529425
5.089641
4.784465
4.451871
4.360676
4.916787
6.389618
10.844469
16.503930
26.796460
35.963655
47.659874
56.000948
62.538981
63.654780
60.848594
55.048466
44.546723
35.413504
25.014877
17.423630
10.796785
7.511973
4.471540
3.502965
##ZVALUE=350
0.398755
0.521541
0.471473
0.557899
0.370741
0.375509
0.447631
0.625849
0.566840
0.506639
0.457764
0.351667
0.395775
0.461936
0.381470
0.346899
0.381470
0.382662
0.388622
0.463724
0.541806
0.363588
0.541806
0.578761
0.600815
0.543594
0.452995
0.613928
0.604987
0.396967
0.475645
0.433922
0.544786
0.606775
0.632405
0.584722
0.692606
0.468493
0.629425
0.659823
0.743866
0.512600
0.676513
0.740886
0.660419
0.709891
0.602603
0.706911
0.726581
0.734925
0.702739
0.918508
0.988841
0.841618
1.026988
1.001954
1.582503
4.996657
23.136735
52.941442
128.649473
214.780569
353.419781
462.648869
579.120517
620.819926
592.635870
516.627431
366.363525
249.615908
127.463937
69.853663
27.528405
11.676550
5.352497
4.630685
4.274845
3.992915
3.950000
4.515648
6.549954
9.442568
15.083551
21.632910
31.980872
40.777922
50.596595
56.261420
58.751702
57.028532
50.990582
43.654442
32.899976
24.781823
16.487837
11.420846
##ZVALUE=355
0.267625
0.279546
0.394583
0.346899
0.511408
0.294447
0.382662
0.454783
0.424981
0.467896
0.444651
0.353456
0.328422
0.411868
0.360608
0.495911
0.407696
0.541806
0.356436
0.492930
0.494719
0.465512
0.464916
0.303984
0.347495
0.395775
0.405908
0.430942
0.495911
0.386834
0.330806
0.431538
0.448823
0.473857
0.486970
0.399947
0.395775
0.473857
0.581741
0.683665
0.531673
0.666976
0.709891
0.628829
0.723600
0.682473
0.496507
0.624657
0.673532
0.626445
0.708699
0.656843
0.824928
0.752807
0.830889
0.896454
0.985861
1.111627
1.243949
3.156662
10.969639
40.569901
83.588958
176.059604
274.856687
424.137712
519.570708
597.677827
603.998899
529.923439
437.363982
296.461582
187.632442
83.577633
40.051937
13.131499
6.348491
4.451871
4.006624
3.719926
3.718734
3.488660
4.185438
5.370975
7.958412
12.995601
18.549562
28.174520
35.543442
44.448972
50.775409
53.210855
52.922964
47.690868
41.394830
32.332540
##ZVALUE=360
0.387430
0.309944
0.373721
0.361800
0.295639
0.262856
0.387430
0.317693
0.503659
0.481606
0.401735
0.299811
0.431538
0.565648
0.686646
0.268817
0.454783
0.290871
0.298619
0.151992
0.473857
0.274777
0.353456
0.323653
0.183582
0.540614
0.562668
0.571609
0.637770
0.531673
0.533462
0.517964
0.547767
0.466704
0.538826
0.425577
0.561476
0.482798
0.492930
0.419617
0.595450
0.508428
0.666976
0.490546
0.655651
0.544786
0.702739
0.661612
0.723600
0.633597
0.721812
0.759959
0.705719
0.720620
0.637770
0.680685
0.712872
0.930429
0.899434
1.031756
1.056790
1.562834
4.630685
21.139979
50.709844
124.897957
207.432508
337.665677
446.848869
550.606847
579.569936
543.502569
467.451811
324.285626
219.245553
109.462738
57.765841
21.115541
9.241700
4.607439
4.040599
3.650784
3.582835
3.310442
3.150702
3.562570
4.359484
6.735921
9.324551
15.391707
22.016764
30.963421
38.119555
44.963956
47.904849
48.098564
##ZVALUE=365
0.323653
0.416636
0.300407
0.248551
0.393987
0.405908
0.345707
0.558496
0.402927
0.398755
0.406504
0.430942
0.332594
0.248551
0.476837
0.441670
0.455976
0.447631
0.503659
0.357628
0.567436
0.575781
0.347495
0.514984
0.310540
0.499487
0.477433
0.361800
0.314713
0.410676
0.259876
0.507832
0.386834
0.497699
0.421405
0.511408
0.561476
0.430942
0.427961
0.531673
0.586510
0.494719
0.607967
0.584722
0.514984
0.693798
0.465512
0.562668
0.553727
0.667572
0.567436
0.533462
0.479817
0.572801
0.617504
0.504851
0.601411
0.761747
0.556707
0.769496
0.920892
1.065731
1.214743
1.164675
2.300739
11.760592
31.404495
83.211660
152.979493
283.339620
382.759571
490.013957
546.705723
543.733835
487.155914
363.414884
261.275768
146.464705
80.349445
29.311776
12.235641
4.955530
3.995895
3.566742
3.408790
3.117919
2.892613
2.825856
2.987981
3.670454
5.197525
8.684993
12.577772
19.727945
25.843978
33.994913
##ZVALUE=370
0.370741
0.293851
0.323653
0.392795
0.433922
0.445843
0.427961
0.305772
0.337958
0.359416
0.341535
0.346899
0.310540
0.406504
0.411868
0.455976
0.345707
0.463724
0.505447
0.280738
0.403523
0.497699
0.310540
0.526905
0.276566
0.269413
0.299811
0.457764
0.367761
0.434518
0.312924
0.395775
0.468493
0.550747
0.385642
0.466704
0.563860
0.582933
0.515580
0.525713
0.486970
0.556707
0.479817
0.560880
0.506639
0.457764
0.608563
0.458956
0.416636
0.625849
0.569820
0.557899
0.673532
0.548959
0.540614
0.521541
0.520945
0.469685
0.658631
0.627637
0.777841
0.805855
0.685453
0.766516
0.936985
1.021624
1.579523
4.903674
24.086833
57.194829
134.354830
214.499831
341.994762
438.229442
529.866815
550.911427
501.230955
419.761539
284.428000
188.165903
90.301633
47.471523
18.010736
7.900596
3.933907
3.546476
3.163815
2.882481
2.847910
2.618432
2.633929
2.794862
3.466606
4.435778
7.205606
10.419488
##ZVALUE=375
0.344515
0.352859
0.195503
0.342727
0.232458
0.284910
0.236630
0.455976
0.373721
0.340939
0.197887
0.411868
0.335574
0.281930
0.249743
0.312924
0.385642
0.257492
0.382662
0.390410
0.421405
0.319481
0.180602
0.378489
0.400543
0.283718
0.410676
0.378489
0.427961
0.397563
0.431538
0.393987
0.357628
0.361800
0.427961
0.626445
0.508428
0.610948
0.655651
0.506639
0.481606
0.507832
0.583529
0.490546
0.536442
0.370741
0.473857
0.368953
0.587702
0.499487
0.514984
0.533462
0.515580
0.588894
0.631809
0.593662
0.642538
0.665784
0.696778
0.566840
0.504851
0.647902
0.776649
0.740886
0.799894
0.787973
0.870824
1.089573
1.124740
3.158450
10.305643
36.708713
79.393983
176.325440
270.826817
405.099988
484.956503
541.482568
531.633496
447.938442
354.479551
221.355557
142.340660
71.476698
36.246777
11.932850
5.168915
3.480911
3.217459
2.969503
2.728701
2.452731
2.499819
2.293587
2.477765
3.067851
##ZVALUE=380
0.364780
0.289679
0.338554
0.418425
0.322461
0.424981
0.423789
0.391603
0.588894
0.388622
0.329614
0.266433
0.289679
0.286698
0.251532
0.273585
0.374913
0.281930
0.359416
0.308752
0.389814
0.369549
0.365973
0.511408
0.451803
0.390410
0.382662
0.477433
0.362992
0.566840
0.608563
0.601411
0.744462
0.774860
0.740886
0.734925
0.719428
0.935793
0.715852
0.761747
0.834465
0.802875
0.693798
0.627637
0.567436
0.627637
0.509620
0.615716
0.597835
0.712872
0.619888
0.480413
0.649691
0.615716
0.671744
0.676513
0.509620
0.539422
0.383854
0.528693
0.540614
0.546575
0.738502
0.513792
0.747442
0.733733
0.695586
0.734925
0.844598
1.067519
1.157522
1.767874
5.513430
25.474429
59.052706
138.657689
223.756433
349.316001
442.891717
523.844957
532.216430
468.800664
389.172435
275.624990
186.588764
93.788505
48.792958
17.551780
7.552505
3.702641
2.993941
2.878904
2.740622
2.565980
2.567768
2.394915
##ZVALUE=385
0.366569
0.383854
0.410676
0.379682
0.338554
0.392795
0.329614
0.241995
0.432730
0.354648
0.368953
0.401735
0.408888
0.409484
0.353456
0.353456
0.354648
0.399947
0.361800
0.282526
0.296831
0.368953
0.281930
0.206828
0.437498
0.530481
0.646710
0.601411
0.840425
0.928640
1.063943
1.107454
0.978708
1.237988
1.264811
1.453757
1.354814
1.252890
1.230836
1.099706
1.121759
1.046658
1.067519
0.998974
0.991821
0.872612
0.882745
0.834465
0.929832
0.732541
0.725985
0.917912
0.756979
0.755787
0.607967
0.701547
0.687838
0.616908
0.720620
0.646710
0.587702
0.612736
0.725985
0.620484
0.660419
0.739694
0.615716
0.659823
0.935793
1.004934
0.930429
1.056790
0.987649
1.177788
3.163815
11.063814
40.261745
85.662603
182.459950
278.012753
408.663750
478.189588
520.364642
506.525636
428.832769
343.105793
218.769908
141.944885
65.498948
33.009648
11.675954
4.873872
3.028512
2.816916
2.666712
2.512932
##ZVALUE=390
0.312924
0.348687
0.348687
0.465512
0.317693
0.340939
0.268817
0.297427
0.377893
0.233650
0.407696
0.383854
0.463724
0.465512
0.427961
0.607967
0.284910
0.419617
0.422597
0.444651
0.400543
0.537634
0.326633
0.464916
0.532866
0.553727
0.576973
0.758767
1.090765
1.251698
1.458526
1.671910
1.813769
1.898408
2.027750
2.116561
1.992583
1.846552
1.912713
1.897812
1.622438
1.740456
1.636744
1.450777
1.630783
1.327991
1.172423
1.245737
1.193881
1.138449
1.000762
0.909567
0.931621
0.779629
0.849962
0.788569
0.818968
0.581741
0.837445
0.619888
0.741482
0.673532
0.693798
0.628829
0.604987
0.765920
0.787973
0.666976
0.863671
0.790954
0.888705
0.832677
0.823736
0.921488
0.934601
1.203418
1.717806
7.761717
23.628473
71.697831
133.791566
249.462724
340.780616
443.947911
501.097441
519.995689
482.910872
386.826992
297.494531
184.455514
108.410716
45.576692
21.069646
6.475449
3.476739
3.072619
##ZVALUE=395
0.487566
0.364780
0.404716
0.365973
0.275970
0.216961
0.181794
0.304580
0.443459
0.266433
0.275970
0.426769
0.459552
0.212789
0.286698
0.275970
0.274777
0.258684
0.418425
0.474453
0.421405
0.485778
0.453591
0.383854
0.632405
0.663996
0.899434
1.096725
1.294613
1.681447
1.892447
1.963973
2.092719
2.296567
2.518892
2.610683
2.579689
2.423525
2.462864
2.374649
2.351999
2.250671
1.981854
2.108812
1.649857
1.688600
1.563430
1.381636
1.463890
1.287460
1.124740
1.278520
0.891685
0.835657
0.889897
1.060963
0.908971
0.794530
0.722408
0.732541
0.779629
0.686646
0.672936
0.723600
0.600815
0.673532
0.799894
0.739694
0.682473
0.693798
0.855923
0.853539
0.960827
0.885725
0.789762
0.841618
0.903606
0.970960
1.247525
3.532767
17.797947
43.294430
102.115870
171.986818
291.904807
386.980772
491.257906
528.134704
513.270497
453.619957
337.673426
240.103006
130.111575
71.310997
27.311444
12.200475
##ZVALUE=400
0.570416
0.288486
0.308752
0.303984
0.293851
0.148416
0.166893
0.219941
0.332594
0.222921
0.388622
0.217557
0.382662
0.341535
0.396967
0.381470
0.597835
0.268817
0.199676
0.272989
0.258684
0.331998
0.208616
0.351667
0.533462
0.514984
0.757575
0.982881
1.470447
1.644492
1.960993
2.292991
2.315640
2.621412
2.567768
2.747774
2.876520
2.741814
2.636909
2.520680
2.597570
2.257824
2.187490
2.165437
1.751781
1.700521
1.637936
1.479983
1.633763
1.414418
1.458526
1.178980
1.189709
1.031756
1.048446
0.956655
0.865459
0.868440
0.845790
0.867844
0.821948
0.581741
0.742674
0.714660
0.702739
0.457764
0.747442
0.896454
0.610948
0.900626
0.835657
0.868440
0.658631
0.662804
0.790954
0.766516
0.803471
0.806451
0.879765
0.908971
1.031756
2.253652
7.957816
30.904412
64.822435
142.415762
225.058794
347.836614
431.769490
504.410863
515.172482
458.684564
384.433866
268.536806
178.935528
92.777610
##END
