##TITLE=FQP00652
##FORMAT=SPECTACLE-ASCII V-1.2
##DATA TYPE=ULTRAVIOLET SPECTRUM
##SECOND TYPE=ULTRAVIOLET SPECTRUM
##DATE=01/21/18
##TIME=17:01:47
##SPECTROMETER/DATA SYSTEM=SPECTACLE
##XUNITS=NM EM
##YUNITS=ENERGY
##YFACTOR=1
##FIRSTX=220
##LASTX=410
##NPOINTS=96
##3DDATA=Equidistant
##ZUNITS=NM EX
##FIRSTZ=210
##LASTZ=400
##ZPOINTS=39
##XYDATA=(Y..Y)
##ZVALUE=210
1.677871
1.303554
1.317859
1.436472
1.753569
1.784563
1.639724
2.199411
1.901984
1.985431
1.998544
2.111793
1.835823
2.277493
2.270937
1.872778
2.370477
2.355576
1.957417
2.848506
2.631545
3.995895
3.057718
3.635883
3.478527
3.768802
4.338622
4.905462
6.155968
5.085468
5.766749
6.644726
5.978942
7.334948
6.651878
6.539822
7.244945
6.767511
6.539822
5.704761
7.192492
5.829930
5.994439
6.530881
6.004572
5.655885
5.670786
5.985498
5.419850
5.443692
5.752444
5.107522
5.236864
6.296635
4.983544
4.493594
4.794598
4.523993
5.024672
5.171895
4.593730
4.396439
4.973412
4.703999
4.790425
5.774498
5.206466
6.405711
6.586909
8.206964
8.335710
10.432601
11.961460
13.822913
15.584826
15.527606
16.126633
16.982555
15.253425
15.721917
14.946461
12.498498
9.985566
9.148717
7.577538
6.183982
5.111694
5.189776
4.625916
4.611611
5.020499
4.471540
4.339814
5.166531
4.588962
5.067587
##ZVALUE=215
4.628897
4.262924
4.308820
3.755689
3.323555
3.329515
3.541708
3.346801
3.785491
4.593730
4.002452
3.926754
3.321767
2.997518
2.667904
2.216697
1.995564
2.674460
2.281666
2.248883
3.140569
3.333688
3.129840
3.517866
4.347563
4.488826
5.997419
6.308556
7.028580
6.973743
7.862449
9.849668
10.590553
9.711981
10.741949
10.670424
11.341572
12.176633
10.894537
10.008812
9.241700
8.930564
9.091496
9.405613
8.309484
8.401871
7.721782
8.035898
7.658601
6.201863
6.695986
5.595684
6.390810
6.018877
5.934834
5.450845
6.039739
4.794598
4.948974
5.072951
5.266666
4.842877
4.869699
5.467534
5.125999
4.528761
4.869699
5.325675
6.983876
7.433891
7.967949
9.238720
10.885000
11.590719
12.587905
13.471842
11.824965
13.576746
11.899471
13.068914
11.728406
8.641481
9.377599
6.933808
7.932782
5.856752
5.061626
4.409552
4.197955
3.827810
3.841519
3.885627
3.837943
3.683567
3.867745
4.901886
##ZVALUE=220
13.522506
14.503598
15.679598
17.334819
15.821457
13.487935
10.247827
8.646846
8.184910
9.098649
9.279847
9.851456
8.870959
9.427667
8.271933
6.550550
4.703999
3.278852
3.080964
2.791882
3.254414
3.560781
3.839731
3.516674
3.587604
5.456805
7.132888
8.605719
10.179877
13.228655
14.226437
16.901493
17.445683
18.035769
18.497705
19.055605
18.104911
18.654466
18.443465
18.640757
16.747713
16.986728
15.869737
13.827682
14.766455
12.183785
11.104941
10.467768
10.705590
8.569956
8.205771
8.383989
8.930564
8.364916
9.052753
6.925464
6.887913
6.461740
6.910563
6.489754
6.129742
6.937981
6.197691
5.953908
6.102920
6.066561
5.691648
5.851984
6.942749
7.454753
7.399917
7.574558
8.885860
9.638667
9.043813
9.358525
9.806752
8.691549
8.749962
8.310676
9.158850
7.561445
7.982850
6.164908
6.342530
6.006956
5.398989
4.234910
4.760623
4.643798
4.583597
3.946424
4.547834
3.600717
3.998876
4.333854
##ZVALUE=225
23.554564
25.623441
35.060644
45.712590
49.995780
50.120950
49.003959
40.039420
31.750798
24.617910
22.866726
20.870566
20.945668
22.830963
24.154782
23.849607
19.502640
16.190410
11.849999
8.454919
5.171895
3.563762
3.579855
4.099607
4.343987
5.454421
6.905794
10.347962
12.206435
15.316606
18.131733
19.211769
22.856593
22.505522
23.304820
25.125742
24.213791
26.193857
24.531484
22.737980
22.004843
20.692945
21.110773
19.946694
17.424822
15.933514
15.372634
15.060902
12.771487
12.527704
11.918545
10.328889
10.844469
9.345412
9.979606
8.615851
9.352565
7.770658
8.778572
9.220839
7.695556
7.286668
7.861853
8.783937
6.631613
7.070899
7.641912
8.258820
8.464456
8.692741
9.327531
8.486509
10.702610
10.895729
9.935498
10.946989
9.530783
9.932518
9.503961
9.058714
8.566976
7.187724
7.525682
7.434487
6.695986
7.917881
5.867481
6.139874
6.856918
6.967783
6.692410
6.629825
5.343556
6.850958
6.908774
6.727576
##ZVALUE=230
22.550821
23.010969
42.158961
59.850812
89.838505
102.918744
126.718879
127.856731
115.345716
98.882914
72.532892
53.728819
45.197606
40.549636
43.076873
49.003959
48.688650
47.685504
43.091774
32.896996
25.008917
18.401742
11.725426
7.518530
5.854964
5.742908
7.069707
8.675456
12.273788
11.925697
14.662743
18.195510
18.330812
20.677447
21.134615
22.925735
23.473501
21.861792
20.931959
20.163655
20.718575
19.467473
18.352866
16.952753
17.053485
16.457438
14.222860
14.682412
12.250543
12.685657
11.013746
11.888742
11.472702
11.174679
10.793805
11.115670
10.509491
11.284947
9.731650
10.418892
9.956956
9.953976
9.473562
9.401441
10.008812
9.652972
9.868741
10.226965
9.691715
10.474920
11.508465
11.709929
12.472868
13.092756
13.403893
12.585521
12.131929
12.542605
12.130737
12.353659
12.329817
12.029409
11.487603
11.711717
11.273623
10.896921
11.845827
10.708570
9.888411
10.582805
10.646582
9.938478
10.405779
9.711981
9.405613
9.323955
##ZVALUE=235
7.749796
8.391738
18.820763
46.889782
75.166821
126.193762
172.123909
229.884982
249.027610
260.383487
232.036710
193.953514
135.785937
99.845529
75.812936
67.844987
69.729686
73.780417
83.074570
83.830953
79.614520
66.502690
51.158667
35.689473
23.905635
15.226603
10.185838
8.987784
8.955598
10.003448
11.172891
12.169480
13.099909
14.139414
15.168786
14.722943
15.786886
13.612509
15.463829
16.596913
16.278625
15.444756
15.076995
16.121864
14.553666
14.104843
13.293624
12.872815
14.214516
12.760758
12.942553
12.045503
12.301803
12.547970
12.621880
12.730956
12.163520
11.919737
12.220740
11.405945
11.150837
11.609793
12.135506
11.870861
12.263656
11.990666
13.305545
11.950731
13.504624
13.126731
14.656782
15.379786
15.544891
14.524460
16.524792
17.302632
16.642809
15.586615
17.886758
16.505718
17.019510
15.017986
14.764667
15.978813
15.402436
14.453530
15.731454
15.787482
15.422702
14.280677
16.181469
15.897751
13.599992
13.423562
13.310909
14.119744
##ZVALUE=240
1.725554
1.401901
3.873706
8.577704
30.172467
54.948926
117.419958
178.582668
284.641981
342.475772
395.379663
394.800901
373.190641
299.714804
238.894820
157.174468
118.043423
95.165968
91.198683
100.383759
112.936497
117.613673
112.443566
102.248788
82.900524
64.192414
47.949553
32.763481
20.097494
13.821721
12.374520
10.368824
10.591745
11.691451
13.138652
14.414787
14.339685
14.812946
13.965964
15.556812
15.802979
15.764832
15.667677
15.212893
15.941858
15.725493
15.696883
14.866590
14.517903
13.306737
15.088916
13.048649
14.301538
13.276935
12.332797
13.135672
13.900995
12.933612
11.861920
12.264848
11.624694
11.345744
13.199449
13.372898
13.037920
12.402534
13.590455
14.305711
14.094710
15.282631
15.473962
17.363429
19.485950
19.536614
19.113421
20.100474
18.539429
19.643903
18.908978
19.527674
19.432902
18.998981
19.525886
21.081567
18.716455
18.438697
19.267797
19.882917
19.472837
18.309951
19.429922
18.835664
19.432902
19.971728
20.345449
19.759536
##ZVALUE=245
1.034737
1.002550
1.289845
1.099706
2.327561
9.110570
21.039844
56.138635
109.184980
170.120597
285.254717
376.132727
450.081825
475.940704
450.949669
402.525663
301.569700
229.613781
169.050694
114.354491
97.909570
98.594427
112.980604
130.741596
131.314993
125.986934
111.247897
93.968511
75.460672
55.657625
42.983890
25.254488
21.383762
18.029809
15.871525
16.436577
16.465783
17.866492
17.260909
17.562509
19.267797
17.718673
18.739700
18.441677
18.929839
17.629862
16.632676
17.200708
16.665459
14.527440
14.003515
14.266968
14.190674
13.746619
12.824535
11.733770
12.044907
11.631846
12.177825
12.042522
13.054609
10.149479
12.610555
11.444688
11.345744
12.233853
12.409687
12.830496
13.735890
14.118552
13.385415
15.929937
15.969872
17.184615
16.740561
19.162893
18.298626
18.857718
18.170476
20.725727
18.126965
19.129515
18.454790
18.930435
19.389987
19.891858
19.815564
18.712878
19.800663
19.257665
19.690990
18.461943
18.074512
18.922687
19.478798
20.037889
##ZVALUE=250
1.103878
0.804663
0.890493
1.066923
1.035929
0.986457
1.929998
5.341768
19.948483
44.387579
105.758905
178.158879
267.584920
390.890837
472.912788
539.302826
530.705452
481.267571
408.182740
294.831991
201.417804
139.706731
95.355511
90.725422
108.436942
123.056769
139.521956
143.777728
139.867663
129.414797
117.616653
90.386868
70.225596
48.338771
37.963986
28.820634
27.196407
25.420785
24.037957
24.922490
25.311708
24.518967
24.169683
22.451878
22.298694
20.893812
20.037889
19.679666
18.576980
18.422604
17.298460
15.633702
15.505552
14.669895
14.432669
13.248920
12.862682
12.676716
12.204647
11.983514
12.000799
11.076927
10.786653
11.574626
12.152791
11.539459
11.672974
13.005733
12.267828
12.827516
13.329983
14.222860
15.283823
15.367866
16.556978
17.473698
16.979575
17.434955
17.988682
18.152595
17.421842
18.308759
18.519759
17.818809
17.887950
18.170476
19.314885
19.938946
18.814802
19.300580
19.267797
18.598437
19.764900
19.302964
18.710494
18.110871
##ZVALUE=255
0.772476
0.873804
0.907779
0.628829
0.944734
1.009703
1.169443
1.045465
1.509786
2.894998
12.879968
31.960607
68.528652
151.150823
233.854651
371.219516
471.729636
571.174622
592.810512
570.423603
498.804450
400.350690
258.580446
170.699954
105.150938
87.755919
93.983412
111.076832
138.420463
153.639913
161.353946
164.577961
151.332617
127.128959
108.540654
79.805851
65.067410
46.408772
38.703680
33.164620
33.669472
30.634999
30.306578
29.037595
28.467774
25.670528
23.671985
22.737980
22.609830
19.459724
19.939542
18.487573
17.570853
16.026497
14.598966
14.671683
13.818741
13.017654
12.661815
11.122823
12.075901
11.919737
10.530949
10.899901
11.753440
11.233687
11.840463
11.646748
11.460781
11.831522
13.500452
12.709498
13.427734
13.961792
14.100671
15.448928
15.392900
15.322566
16.502738
16.037822
16.068816
16.371608
17.015934
17.480850
17.121434
16.922951
17.210841
17.559528
18.065572
18.459558
18.239617
18.081665
18.407702
18.403530
18.984675
18.711686
##ZVALUE=260
0.925660
0.795722
0.778437
0.668764
0.846982
0.923872
0.989437
0.948906
1.064539
0.798702
0.932813
1.606941
5.984902
23.328662
48.928857
119.596720
202.144980
335.536599
443.132520
584.355593
652.889609
656.442642
597.007871
491.209626
335.130692
234.972835
142.474771
101.541877
89.567900
101.173520
131.953955
155.598521
174.067616
185.952783
184.790492
166.452527
149.722695
119.091868
96.214414
72.088838
58.554411
47.365427
40.458441
36.342740
33.899546
31.583905
30.076504
28.880835
26.463866
24.481416
23.308992
21.820664
20.358562
18.320680
16.891956
16.123652
15.251637
14.085770
12.971759
12.763739
12.250543
12.393594
12.042522
11.046529
10.762811
10.942817
11.198521
11.142492
11.023879
10.986924
12.508631
12.962818
12.994409
13.786554
14.265776
14.811754
13.916492
15.146732
15.248656
15.129447
15.069842
15.344620
15.335679
15.833974
15.941858
16.120672
16.541481
16.966462
16.572475
16.707778
16.902685
16.803741
17.994642
16.666651
16.988516
17.724633
##ZVALUE=265
0.564456
0.559688
0.643730
0.582933
0.760555
0.754595
0.829697
1.033545
0.810623
0.888705
1.057982
1.104474
1.167655
1.159906
2.476573
14.129877
34.601688
88.684559
157.990456
302.529931
427.410603
554.347634
684.095025
708.389878
655.712485
567.553639
426.615477
310.487747
181.619525
128.382444
99.481940
100.721717
116.806626
149.516463
176.407695
197.123885
201.299787
196.529627
182.108879
150.961876
124.755502
94.917417
75.250864
54.140687
46.308637
36.879778
33.274889
30.946732
30.086637
27.245879
25.241971
23.189783
22.106767
20.117760
18.694997
17.021894
16.020536
15.037656
14.842749
13.458729
12.999773
12.538433
12.695789
10.916591
11.711717
11.206865
11.762977
12.049675
10.966659
11.702776
11.920929
12.042522
12.717843
13.233423
13.053417
13.536811
13.336539
13.519526
13.863444
14.054775
13.698936
15.139580
15.086532
15.102625
14.913678
15.560985
15.401840
15.796423
15.790462
15.836954
16.040802
16.445518
16.391873
15.990734
15.602708
16.095638
##ZVALUE=270
0.496507
0.484586
0.725985
0.760555
0.569820
0.595450
0.714660
0.418425
0.688434
0.901818
0.898838
0.760555
0.923872
0.723600
1.150966
1.063943
1.556873
6.069541
19.071698
62.770844
125.584602
221.982598
392.925739
531.398654
680.071712
738.025904
728.846788
668.633580
531.791449
408.340693
295.046568
176.149607
123.571754
99.200606
103.911757
131.003857
155.678988
182.129741
195.008516
201.378465
193.286538
173.656940
151.648521
116.374493
91.675520
64.899921
49.742460
38.107634
31.440854
27.097464
24.331808
22.552609
22.207499
20.290613
18.274784
18.116832
15.871525
15.515685
14.594793
15.025735
14.030933
12.446642
12.632608
12.411475
11.746883
11.189580
11.991858
11.984706
11.955500
12.505651
12.320876
12.761950
12.267828
12.864470
13.928413
13.367534
13.132691
13.625622
13.631582
14.000535
14.226437
14.130473
13.661981
14.629960
14.594793
14.134645
15.301704
14.783740
15.195608
14.937520
15.188456
15.262961
15.132427
15.548468
14.970899
16.224980
##ZVALUE=275
0.300407
0.432730
0.459552
0.668764
0.500679
0.574589
0.740886
0.400543
0.582933
0.257492
0.853539
0.614524
0.661612
0.793934
0.712872
0.946522
0.848770
1.232624
1.148582
2.765656
10.887980
31.989813
96.501708
182.286501
339.334011
469.947457
623.360872
720.608830
768.980980
726.087689
617.245436
492.975712
365.468860
210.594535
139.698982
88.495612
78.571439
91.867447
108.555555
139.496922
160.477757
177.236795
185.010433
172.902942
158.588886
128.419995
103.343725
74.931979
57.927966
38.283467
29.611588
22.460818
19.888878
17.493963
16.649961
14.992952
15.095472
14.390945
14.140606
13.461709
13.244748
12.447834
12.552738
12.114644
12.058616
12.129545
12.083650
12.696981
12.320876
12.198687
12.756586
13.064742
13.664961
12.797713
13.623834
14.240742
13.585687
14.187694
13.736486
13.573766
14.055967
13.867617
14.649630
15.145540
13.818741
14.240742
14.416575
14.749765
14.213920
14.454722
14.842749
14.129877
14.881492
14.974475
14.645457
14.642477
##ZVALUE=280
0.302792
0.441670
0.657439
0.455976
0.307560
0.485778
0.573993
0.480413
0.566840
0.643730
0.672936
0.698566
0.752807
0.846982
0.722408
0.657439
0.833869
0.781417
0.829697
1.113415
1.073480
1.114607
6.881952
24.001598
75.539947
140.878558
264.930725
396.423936
574.804544
679.854751
752.020478
755.085945
690.481663
531.418920
396.664739
233.755708
148.948431
77.883601
55.004954
53.536892
66.629648
94.476938
116.128922
143.304467
156.795979
162.830949
154.934525
139.120817
119.669437
89.445710
67.033768
44.562817
31.358600
20.651817
16.504526
13.555884
12.581944
12.504458
11.753440
12.209415
11.606812
12.701750
12.526512
12.133718
12.345910
12.265444
12.803674
12.958646
12.702942
13.198853
13.467669
13.328791
13.663769
14.235973
14.279485
14.305711
14.193654
14.254451
13.930798
14.449954
14.333725
14.966726
14.511943
14.904737
14.618635
14.653802
14.945865
14.385581
14.954805
14.357567
14.492869
14.498830
13.364553
13.632774
14.254451
13.736486
##ZVALUE=285
0.424981
0.405908
0.416636
0.441670
0.420809
0.393987
0.423789
0.347495
0.467896
0.401735
0.581741
0.301600
0.407696
0.465512
0.424981
0.635982
0.925660
0.679493
0.742674
0.897646
0.824928
0.901818
1.130700
1.125932
3.207922
11.511445
41.399002
88.659525
194.579959
305.282474
471.304655
600.473881
703.564882
758.659840
721.960664
593.212843
463.342667
297.190547
186.518431
90.324879
52.313805
33.347607
35.987496
57.777762
76.874495
106.357932
125.763416
143.833756
150.941610
146.854520
134.961605
110.251904
89.096427
63.303709
45.815706
28.128624
20.451546
14.132857
12.583733
11.930466
11.995435
11.723638
12.289882
12.949705
12.992620
13.638735
13.558865
13.722777
14.277697
14.334917
14.735460
14.456511
14.708638
15.432835
15.403628
15.459657
15.639663
15.200973
15.165806
15.311837
15.509725
15.401840
15.175939
15.006661
14.723539
15.347600
14.807582
15.634894
14.784932
14.642477
14.024973
13.947487
14.130473
14.546514
14.246702
14.427900
##ZVALUE=290
0.416636
0.348687
0.299811
0.298619
0.523925
0.486970
0.495911
0.636578
0.458956
0.401735
0.456572
0.524521
0.558496
0.441670
0.475645
0.697970
0.515580
0.661612
0.708699
0.462532
0.718832
0.803471
0.780821
0.865459
0.805855
1.115799
1.507998
4.264712
21.965504
53.633451
108.049512
230.616927
359.704494
546.013713
659.986734
753.604770
740.302801
646.366477
535.829663
362.776518
241.158605
122.349858
66.895485
30.661821
24.723411
35.211444
49.288869
72.566867
94.961524
121.904612
136.799812
146.561861
144.650936
130.059719
109.943748
83.951950
64.631701
43.450594
31.327605
21.023750
16.865730
13.957620
13.766885
13.665557
13.642907
13.774633
14.925599
15.000701
15.168786
15.834570
15.918612
16.202927
16.110539
16.484857
15.995502
16.244650
16.271472
16.572475
16.344786
16.256571
16.508698
16.475916
15.920997
16.060472
15.940666
15.796423
15.986562
15.798807
14.975667
15.429854
15.186667
14.770627
14.568567
14.463663
14.089942
14.510751
##ZVALUE=295
0.346899
0.296831
0.321865
0.311732
0.312924
0.333786
0.360608
0.353456
0.470877
0.427961
0.388622
0.375509
0.507832
0.576973
0.573993
0.420809
0.571609
0.666976
0.611544
0.574589
0.585914
0.562668
0.588894
0.755787
0.700951
0.752807
0.982881
1.100898
1.137853
2.058744
7.676482
31.592846
75.106621
178.919435
292.606950
473.821759
595.077872
716.478825
746.866465
688.895583
591.663718
424.745679
297.022462
159.258842
89.903474
35.907626
21.752715
20.888448
29.328465
47.913790
66.438913
92.685819
111.726522
132.456422
139.288902
136.613846
125.739574
104.972720
86.841583
61.551929
46.500564
30.770898
23.526549
18.013716
16.504526
15.222430
15.189648
15.647411
15.813708
16.534925
16.527772
17.010570
16.719699
16.846657
17.734766
17.062426
17.374754
17.404556
17.536879
16.740561
16.761422
17.058849
16.772747
16.846657
16.829967
16.543865
16.581416
15.823841
15.661716
15.569925
15.674829
14.812946
14.682412
14.413595
14.526844
14.592409
##ZVALUE=300
0.253916
0.266433
0.212789
0.403523
0.283718
0.488758
0.348687
0.350475
0.266433
0.312924
0.347495
0.424981
0.243783
0.434518
0.291467
0.328422
0.405908
0.340939
0.429749
0.534654
0.445843
0.488758
0.498891
0.640750
0.701547
0.695586
0.852942
0.857711
0.790954
0.869632
0.959635
1.050830
4.240870
16.611814
58.038831
116.016865
240.608454
368.715525
542.483926
647.918582
729.718804
725.274682
628.620982
518.884659
346.465707
227.530599
116.913915
62.967539
25.468469
16.663671
18.915534
26.769638
43.640733
59.603453
85.354447
104.040504
126.581788
134.301782
132.800937
125.219822
104.695559
86.523890
63.658953
48.794746
33.085942
25.048852
19.047856
17.237663
16.437769
16.681552
15.879869
17.013550
16.659498
17.003417
17.578602
17.189980
17.719865
17.656684
17.492771
17.634630
17.328858
17.658472
17.366409
17.325878
17.382503
16.397834
16.013980
16.305447
16.223788
15.766621
15.747547
15.409589
15.090704
14.874935
14.578700
13.783574
##ZVALUE=305
0.251532
0.375509
0.492930
0.363588
0.231862
0.246763
0.164509
0.186563
0.355840
0.353456
0.277758
0.310540
0.228882
0.376701
0.358820
0.367761
0.584722
0.286698
0.325441
0.393987
0.516772
0.439882
0.514984
0.471473
0.448823
0.629425
0.688434
0.637770
0.333786
0.666976
0.672936
0.718832
1.032948
0.982881
1.746416
11.198521
31.721592
91.746449
167.165995
315.407515
441.695452
601.650476
690.527558
723.192692
675.185919
541.105866
421.682596
268.526673
168.635845
77.749491
40.513873
17.233491
13.740659
18.670559
26.147962
42.656660
60.196519
83.360672
100.940466
121.454000
127.536654
127.219558
120.126605
101.095438
84.914565
60.968995
46.248436
31.973720
24.576783
18.999577
17.309785
16.960502
16.214848
16.568899
17.000437
16.744733
17.347932
16.583800
17.522573
17.101765
16.832948
17.174482
16.941428
17.208457
17.237663
16.440749
17.067790
16.671419
15.911460
15.849471
15.556812
15.331507
15.161633
14.874935
15.001893
14.237761
##ZVALUE=310
0.224710
0.152588
0.257492
0.158548
0.393987
0.250936
0.242591
0.209808
0.314713
0.397563
0.389814
0.262856
0.340939
0.229478
0.329614
0.337958
0.401735
0.243783
0.494719
0.408888
0.350475
0.471473
0.535846
0.435710
0.418425
0.433922
0.589490
0.510812
0.572801
0.553727
0.809431
0.702739
0.738502
0.689626
0.872612
0.982881
1.289845
3.500581
19.508004
47.439933
120.388865
210.321546
367.484689
494.785905
638.318658
699.603558
690.890551
627.425909
486.333966
359.704494
206.723809
124.177933
56.457520
28.143525
14.220476
12.721419
16.733408
23.551583
36.898851
51.481724
74.228644
91.453791
110.727549
119.954944
119.654536
114.331841
97.977519
82.251430
58.522820
44.151545
30.988455
24.652481
19.000769
16.857982
16.560555
15.924573
15.790462
15.985966
16.022921
16.188622
16.164780
16.439557
16.710758
16.043782
16.691685
16.284585
16.171932
15.913844
16.014576
15.712976
15.617609
15.262961
14.996529
14.507771
14.428496
14.562607
##ZVALUE=315
0.117421
0.242591
0.325441
0.286698
0.349879
0.276566
0.323653
0.431538
0.326633
0.162721
0.187755
0.144839
0.188947
0.361800
0.288486
0.280738
0.449419
0.323653
0.228882
0.478625
0.332594
0.291467
0.471473
0.502467
0.447631
0.369549
0.390410
0.529885
0.299811
0.465512
0.489950
0.484586
0.663996
0.622869
0.477433
0.808835
0.917912
0.838637
1.141429
2.100468
7.781982
34.475923
75.953007
173.054934
280.688405
452.204943
561.584830
661.774874
691.539645
640.586615
551.100969
399.948955
280.091763
152.353644
84.148645
34.099817
17.097592
11.253953
11.420846
16.296506
22.183657
35.478473
48.576593
69.457889
85.957646
105.602741
112.671852
115.047693
107.121468
91.985464
76.875687
59.140921
44.576526
31.010509
23.362637
18.428564
16.452670
15.782714
15.604496
15.426874
15.724897
15.830994
16.232729
15.725493
15.810728
15.675426
15.968680
15.324950
15.347600
15.336871
15.107989
14.894605
14.962554
14.990568
14.387965
14.115572
##ZVALUE=320
0.244975
0.098944
0.162721
0.290871
0.095963
0.150800
0.101924
0.157952
0.352859
0.211596
0.168681
0.374913
0.271797
0.037551
0.141859
0.305772
0.336766
0.301600
0.399947
0.184774
0.121593
0.349879
0.415444
0.385642
0.136495
0.343919
0.475645
0.364780
0.598431
0.180602
0.361800
0.379682
0.612736
0.580549
0.471473
0.531673
0.624657
0.683665
0.673532
0.700951
0.836849
1.170635
3.436804
18.885732
48.074722
127.146840
211.420655
355.027914
475.225449
614.717007
679.057837
673.061013
608.072877
467.401743
342.506766
192.411542
111.988783
50.256848
25.096536
11.254549
9.301901
10.652542
13.143420
20.172596
29.874444
46.621561
61.338544
80.275536
94.579458
106.812716
107.707977
102.304816
90.786815
71.121454
56.378841
40.457845
30.642748
22.047758
18.357635
15.799999
14.428496
14.776587
14.801621
14.694929
14.602542
14.705658
15.245676
15.175939
15.244484
14.734864
14.912486
14.499426
14.472604
14.367700
14.545918
14.167428
##ZVALUE=325
0.326633
0.242591
0.269413
0.078678
0.151992
0.107884
0.188947
0.086427
0.276566
0.179410
0.164509
0.280738
0.380874
0.250936
0.193715
0.183582
0.282526
0.356436
0.282526
0.224710
0.303984
0.056624
0.281930
0.485778
0.335574
0.429749
0.389814
0.360608
0.404716
0.500679
0.297427
0.384450
0.540614
0.541806
0.563860
0.667572
0.511408
0.712872
0.635982
0.806451
0.597835
0.775456
0.882745
0.951886
1.702905
11.948943
32.373667
83.540678
153.817534
292.138457
411.837697
555.951595
636.688471
669.423938
624.064803
495.852828
378.691554
235.364437
143.680573
64.584613
33.131838
13.136864
9.004474
8.364916
9.688735
13.094544
18.321872
30.179620
41.571856
61.550736
75.662732
91.048479
98.675489
100.798607
94.608665
81.181526
67.934990
52.102804
40.245652
27.920604
21.547675
16.811490
15.569925
14.704466
14.275908
14.164448
14.125705
14.555454
14.580488
14.259815
13.916492
13.854504
14.100671
14.234781
13.364553
13.443828
##ZVALUE=330
0.190735
0.111461
0.286698
0.248551
0.190735
0.267625
0.254512
0.307560
0.208616
0.179410
0.162721
0.251532
0.183582
0.238419
0.208616
0.204444
0.392795
0.266433
0.118613
0.117421
0.292659
0.264645
0.345707
0.463724
0.171661
0.376701
0.379682
0.552535
0.364780
0.447631
0.267625
0.352859
0.308752
0.394583
0.346899
0.389814
0.518560
0.604987
0.572801
0.652671
0.493526
0.617504
0.650883
0.811815
0.858903
0.908971
1.127720
3.568530
19.370914
49.182773
122.022629
204.539895
350.953937
465.601683
587.188005
637.584925
622.285008
551.555753
420.705676
309.433937
172.898769
100.757480
43.220520
21.349788
9.149909
8.103848
8.307695
9.408593
13.138652
18.765926
29.675961
40.505528
57.068467
70.613623
85.924864
93.499422
94.406605
89.586973
77.346563
64.962506
48.337579
38.200617
27.911663
22.329688
17.650723
15.723705
14.229417
14.216900
13.627410
13.557673
13.763905
13.607740
13.668537
13.670921
13.406873
13.198853
##ZVALUE=335
0.214577
0.166893
0.221729
0.217557
0.222921
0.123978
0.236630
0.168681
0.153780
0.081658
0.229478
0.168681
0.295639
0.301600
0.230670
0.069737
0.286698
0.249743
0.239611
0.083447
0.418425
0.235438
0.255704
0.177622
0.251532
0.430942
0.284910
0.173450
0.238419
0.229478
0.427961
0.371933
0.427961
0.437498
0.451803
0.487566
0.425577
0.387430
0.492930
0.527501
0.522733
0.448823
0.490546
0.435710
0.581741
0.653863
0.687838
0.906587
1.091957
2.261996
8.311868
33.196807
72.662830
163.857937
261.390805
414.877534
520.395637
607.352853
619.902015
559.953451
472.491980
325.418711
223.026872
118.155479
64.162612
24.730563
12.356639
8.149743
8.063912
8.802414
9.454489
13.132691
17.431974
27.921796
39.075613
55.337548
67.103505
81.991553
88.993907
89.489818
84.481835
72.247982
61.792731
49.352646
39.266944
28.147697
22.123456
17.761588
15.531778
14.048815
13.524890
13.027787
13.284683
13.034940
12.805462
13.065934
##ZVALUE=340
0.062585
0.289679
0.166893
-0.022650
0.203848
-0.031590
0.269413
0.284910
0.096560
0.312924
0.224710
0.040531
0.221729
0.201464
0.188947
0.147820
0.113845
0.052452
0.028610
0.300407
0.155568
0.183582
0.229478
0.222921
0.306964
0.092983
0.254512
0.289679
0.155568
0.267625
0.176430
0.243783
0.237823
0.289679
0.287890
0.377893
0.422597
0.254512
0.394583
0.411868
0.374913
0.361800
0.409484
0.427961
0.484586
0.529885
0.497699
0.522733
0.660419
0.624657
0.660419
1.041889
3.814697
19.739866
49.698949
124.307871
211.058855
342.593789
446.138978
558.004975
593.120456
568.005443
500.782728
371.719599
267.630816
142.378807
81.656575
35.036802
16.420484
8.701682
7.971525
7.943511
8.452535
10.115504
12.756586
18.758774
25.785565
38.741827
49.988627
67.363977
76.632500
83.913803
84.769726
80.320835
72.260499
58.894753
47.931671
35.616755
28.354526
21.115541
17.750859
14.324784
13.139844
12.671947
12.421608
12.560487
##ZVALUE=345
0.079870
0.169873
-0.016689
0.059605
0.063777
-0.003576
0.020862
0.131726
0.130534
0.180602
0.275970
0.206828
0.229478
0.194907
0.207424
0.202656
0.272989
0.253916
0.206828
0.339746
0.232458
0.203848
0.059605
0.246763
0.214577
0.278950
0.133514
0.269413
0.273585
0.369549
0.283718
0.339746
0.437498
0.339746
0.428557
0.148416
0.263453
0.314713
0.417829
0.400543
0.143647
0.312924
0.238419
0.406504
0.468493
0.473857
0.528693
0.499487
0.619888
0.596642
0.586510
0.696778
0.553727
0.843406
1.715422
10.491610
31.080842
85.685849
149.317980
269.277692
372.841954
497.928858
556.075573
562.583804
515.597463
400.946736
301.879644
183.768868
106.146932
44.775605
22.500753
10.112524
8.196831
7.874966
7.926822
8.709431
9.239912
12.434721
16.502738
25.233626
34.295917
48.803687
59.052706
70.460439
75.933933
78.690648
76.308846
67.793727
59.800744
46.453476
37.483573
26.672482
21.359921
15.866756
14.032722
12.858510
##ZVALUE=350
0.086427
0.173450
0.225902
0.229478
-0.020862
0.235438
0.186563
0.288486
0.182986
0.212789
-0.053644
0.066757
0.220537
0.140667
0.151992
0.172853
0.208616
0.015497
0.169873
0.025630
0.112653
0.236630
0.310540
0.226498
0.275970
0.113845
0.194907
0.227690
0.152588
0.230670
0.200868
0.229478
0.115633
0.333786
0.148416
0.267625
0.257492
0.361800
0.376701
0.273585
0.361800
0.288486
0.426769
0.313520
0.366569
0.259876
0.435710
0.315905
0.531673
0.435710
0.506639
0.622869
0.622869
0.501871
0.513792
0.744462
1.226664
4.913807
16.536713
53.780675
104.579926
209.861994
306.545496
429.911017
505.914688
551.077724
526.547432
438.165665
341.632962
207.448006
128.575563
61.809421
30.754805
11.833906
7.902980
7.629991
7.767677
7.748604
8.232594
9.601712
11.575818
16.708970
21.770597
31.833649
41.073561
52.939653
62.708855
69.448948
71.647763
69.992542
64.459443
53.910613
44.213533
33.280849
26.667714
19.835830
##ZVALUE=355
0.098944
-0.071526
0.097752
-0.028610
0.000000
0.021458
0.057817
0.177622
-0.004768
0.117421
0.185966
-0.155568
0.084639
0.096560
0.099540
0.057817
0.114441
0.152588
0.076890
0.143647
0.088811
0.115633
0.052452
0.124574
0.140667
0.023842
0.140667
0.103712
0.236630
0.220537
0.078678
0.178814
0.123978
0.191927
0.207424
0.153780
0.081658
0.163913
0.229478
0.151992
0.125766
0.269413
0.203848
0.312924
0.271797
0.268817
0.305772
0.212789
0.313520
0.373721
0.353456
0.594854
0.523925
0.508428
0.282526
0.413656
0.763535
0.622869
0.789762
2.319813
8.548498
35.227537
73.215961
154.148936
243.626833
377.735496
462.986827
524.407625
524.037480
450.803638
363.367796
238.937736
151.485801
69.643855
35.773516
14.652610
8.623600
7.192492
7.009506
7.335544
7.460713
7.795691
8.890629
10.726452
13.550520
19.914508
26.275516
36.496520
45.606494
55.015683
61.126947
64.382553
63.957572
57.984591
51.111579
41.358471
##ZVALUE=360
0.203848
0.156760
0.183582
0.143647
0.220537
0.211596
0.124574
0.075698
0.189543
0.074506
0.050664
-0.039935
0.035763
0.200868
0.112653
0.050664
0.150800
0.338554
0.125766
0.170469
0.212789
0.258684
0.344515
0.313520
0.510812
0.195503
0.236630
0.278950
0.169873
0.225902
0.156760
0.213981
0.190735
0.314713
0.241995
0.251532
0.233650
0.175834
0.175834
0.386834
0.248551
0.198483
0.344515
0.261664
0.281930
0.312924
0.350475
0.417829
0.420809
0.422597
0.303984
0.446439
0.357628
0.396967
0.454783
0.531673
0.504851
0.565648
0.629425
0.745654
0.803471
1.267791
3.977418
18.678904
44.822693
108.163953
184.381604
309.278965
399.206877
480.004549
504.882932
468.572974
401.569605
279.024839
189.140439
94.754696
50.906539
20.859838
10.451674
7.119775
6.895661
7.028580
7.110834
7.153749
7.272959
7.741451
9.224415
12.150407
15.419722
22.254586
29.580593
40.501952
47.407746
54.833889
58.333874
58.715940
##ZVALUE=365
0.054836
0.174642
0.153780
0.068545
0.205636
0.018477
0.182986
0.197887
0.113845
0.201464
0.233650
0.146627
-0.028610
0.172853
0.266433
0.101924
0.187755
0.217557
0.331998
0.137687
0.105500
0.126958
0.246763
0.237823
0.267625
0.195503
0.311732
0.061989
0.056624
0.230670
0.483990
0.086427
0.089407
0.242591
0.077486
0.233650
0.115633
0.213981
0.334978
0.269413
0.204444
0.192523
0.162721
0.325441
0.335574
0.250936
0.279546
0.270605
0.301600
0.266433
0.351667
0.296831
0.233650
0.220537
0.419617
0.470877
0.536442
0.435710
0.566840
0.609756
0.473857
0.666976
0.783801
0.858903
1.760721
10.066628
27.770996
73.081851
134.788752
251.076818
338.027477
434.138775
479.709506
477.448702
420.728922
311.789513
224.324465
126.360655
70.346594
27.456880
13.316870
7.002950
6.521940
6.181598
6.242990
6.444454
6.322861
6.486773
6.907582
7.941723
9.607673
14.076829
18.544793
26.599765
33.558607
42.228699
##ZVALUE=370
0.099540
0.199676
0.164509
0.165701
0.193715
0.086427
0.065565
-0.001788
0.360608
0.012517
0.046492
0.039935
0.077486
0.202656
0.099540
0.104904
0.091791
0.183582
0.048876
0.113845
0.087619
0.087619
0.159740
0.206828
0.090599
0.276566
0.164509
0.116825
0.199676
0.204444
0.261664
0.272989
0.143647
0.199676
0.134706
0.289679
0.205636
0.184774
0.183582
0.297427
0.160933
0.167489
0.137687
0.283718
0.140667
0.211596
0.171661
0.276566
0.390410
0.172853
0.374913
0.277758
0.372529
0.383854
0.319481
0.376701
0.487566
0.352859
0.508428
0.343919
0.593662
0.399947
0.585914
0.691414
0.704527
0.689626
0.880957
4.812479
16.621947
54.242611
102.459788
197.231770
285.961628
402.507782
459.308624
472.247601
434.076786
344.029665
256.070495
147.008896
84.592700
35.734773
18.092990
8.429885
6.057620
5.593896
5.645752
5.773902
5.943775
5.838871
5.983710
6.557703
7.297993
9.093881
11.808872
16.726851
##ZVALUE=375
0.014901
0.114441
0.155568
0.075698
-0.036955
0.178814
0.077486
0.202656
0.206828
0.045896
0.080466
0.148416
0.087619
0.151992
0.108480
0.263453
0.093579
0.166893
0.203848
0.113845
0.215769
0.230670
0.129938
0.126958
0.018477
0.081658
0.086427
0.216961
0.258684
0.151992
0.249743
0.096560
0.220537
0.225902
0.199676
0.156760
0.155568
0.134706
0.141859
0.166893
0.286698
0.251532
0.146627
0.176430
0.193715
0.175834
0.224710
0.083447
0.183582
0.161529
0.279546
0.377893
0.281930
0.280738
0.371933
0.328422
0.302792
0.349879
0.300407
0.305772
0.363588
0.503659
0.345707
0.431538
0.551939
0.673532
0.557899
0.563860
0.729561
2.098680
11.880994
30.545592
78.520775
140.065551
251.711607
335.992575
426.445007
463.887453
449.731946
390.873551
281.575918
201.741457
114.256740
65.937638
28.125644
13.485551
6.358624
5.558729
5.181432
5.273819
5.263686
5.129576
5.358458
5.579591
5.706549
6.586909
##ZVALUE=380
0.007749
0.045896
0.019670
0.115633
0.121593
0.042915
0.061989
0.219941
0.118613
0.028610
-0.046492
0.013709
0.018477
-0.030994
0.127554
0.102520
0.093579
0.085831
0.119805
0.047684
0.044703
0.146627
0.048876
0.088811
0.129938
0.138879
0.134706
0.164509
0.251532
0.209808
0.153780
0.119805
0.208616
0.186563
0.206828
0.149608
0.109673
0.282526
0.135899
0.159740
0.341535
0.162721
0.215769
0.051856
0.209808
0.215769
0.192523
0.217557
0.236630
0.271797
0.136495
0.088811
0.080466
0.162721
0.237823
0.149608
0.195503
0.408888
0.189543
0.253916
0.229478
0.339746
0.353456
0.403523
0.379682
0.219941
0.442863
0.533462
0.476837
0.442863
0.659823
1.331568
4.605651
22.914410
53.132772
123.259425
197.868943
309.427977
388.075709
456.178784
459.281802
400.205851
330.896974
232.627988
158.309937
80.277920
42.639971
16.583800
8.465648
5.104542
5.036592
4.679561
4.917979
4.756451
5.055666
5.135536
##ZVALUE=385
-0.002980
0.007749
0.022650
0.198483
0.074506
0.088811
0.231862
0.190735
0.136495
0.139475
0.037551
0.058413
0.004768
0.114441
0.041723
0.012517
0.095963
0.078678
-0.010729
0.121593
0.068545
0.255704
0.237823
0.237823
0.077486
0.227690
0.279546
0.219941
0.132918
0.179410
0.164509
0.018477
0.163913
0.258684
0.260472
-0.005960
0.186563
0.263453
0.191927
0.139475
0.328422
0.208616
0.200868
0.245571
0.128746
0.250936
0.320673
0.316501
0.174642
0.091791
0.279546
0.293851
0.234842
0.168681
0.201464
0.383854
0.182986
0.178814
0.263453
0.277758
0.277758
0.232458
0.366569
0.340939
0.360608
0.356436
0.389814
0.418425
0.447631
0.553727
0.509620
0.554919
0.724792
0.815988
2.143979
12.522936
32.386780
82.009435
145.460963
256.407857
341.071486
422.020555
444.536805
424.765944
373.313427
275.925994
196.922421
109.042525
63.327551
27.833581
12.444854
5.381703
4.382730
4.296899
4.576445
4.435778
##ZVALUE=390
0.148416
0.167489
0.200868
0.228882
0.259876
0.251532
0.258684
0.232458
0.090599
0.052452
0.119805
0.291467
0.209808
0.001788
-0.072718
0.174642
0.228882
0.153780
0.108480
0.019670
0.068545
0.074506
0.208616
0.081658
0.144839
0.077486
0.106692
0.243783
0.190735
0.195503
0.384450
0.286698
0.133514
0.129938
0.296831
0.241995
0.230670
0.199676
0.244975
0.169873
0.205636
0.130534
0.305772
0.168681
0.152588
0.274777
0.258684
0.162721
0.173450
0.161529
0.259876
0.322461
0.093579
0.169873
0.218749
0.242591
0.216961
0.197887
0.341535
0.349879
0.421405
0.249743
0.390410
0.232458
0.319481
0.249743
0.484586
0.483990
0.413656
0.339746
0.457764
0.514984
0.491738
0.679493
0.772476
0.627637
1.267791
4.943609
23.343563
54.719448
126.133561
198.162794
298.110843
370.242000
432.565808
441.694856
397.516489
334.864855
230.180621
156.963468
82.973838
44.204593
16.600490
7.714629
4.447699
4.169941
##ZVALUE=395
0.082850
0.199676
0.055432
0.061989
-0.058413
0.264645
0.216961
-0.135899
0.105500
0.022650
0.085831
0.008941
0.089407
0.056624
0.299811
0.113845
0.161529
0.127554
-0.080466
0.044703
0.126958
0.188947
0.234842
0.086427
0.096560
0.112653
0.282526
0.101924
0.129938
0.071526
0.266433
0.285506
0.322461
0.198483
0.149608
0.144839
0.307560
0.202656
0.202656
0.199676
0.136495
0.023842
0.081658
0.331998
0.269413
0.251532
0.229478
0.036955
0.225902
0.073910
0.158548
0.274777
0.208616
0.343919
0.146627
0.324845
0.250936
0.111461
0.238419
0.201464
0.248551
0.298619
0.324845
0.247955
0.205636
0.251532
0.294447
0.386834
0.403523
0.506639
0.475645
0.394583
0.427961
0.469685
0.576973
0.375509
0.617504
0.737906
0.865459
2.604723
15.468597
37.782788
89.422464
149.319768
251.802802
330.380797
414.246917
444.154739
428.336859
375.956893
278.906822
197.583437
107.546449
59.587955
23.911595
11.765957
##ZVALUE=400
0.025630
0.045896
0.084639
0.091791
0.109673
0.090599
-0.045896
0.004768
0.062585
0.138879
-0.026822
0.050664
0.204444
0.068545
0.176430
0.237823
0.016689
0.143647
0.203848
0.072718
0.032783
0.056624
0.172853
-0.000596
0.086427
0.146627
0.083447
0.054836
0.126958
0.091791
0.131726
0.207424
0.220537
0.399947
0.218749
0.278950
0.051856
0.220537
0.229478
0.310540
0.167489
0.121593
0.306964
0.286698
0.261664
0.084639
0.024438
0.001788
0.091791
0.136495
0.260472
0.199676
0.281930
0.061989
0.315905
0.184774
0.257492
0.245571
0.301600
0.160933
0.074506
0.262856
0.285506
0.203848
0.197887
0.216961
0.209808
0.310540
0.383854
0.425577
0.500679
0.324845
0.417829
0.403523
0.487566
0.298619
0.355840
0.539422
0.400543
0.337958
0.617504
1.725554
6.749630
25.220513
53.835511
120.671988
191.903710
296.275616
365.643501
424.431562
431.751013
382.534862
316.935778
221.978426
148.865581
76.536536
##END
