##TITLE=FQP00301
##FORMAT=SPECTACLE-ASCII V-1.2
##DATA TYPE=ULTRAVIOLET SPECTRUM
##SECOND TYPE=ULTRAVIOLET SPECTRUM
##DATE=01/21/18
##TIME=17:22:28
##SPECTROMETER/DATA SYSTEM=SPECTACLE
##XUNITS=NM EM
##YUNITS=ENERGY
##YFACTOR=1
##FIRSTX=220
##LASTX=410
##NPOINTS=96
##3DDATA=Equidistant
##ZUNITS=NM EX
##FIRSTZ=210
##LASTZ=400
##ZPOINTS=39
##XYDATA=(Y..Y)
##ZVALUE=210
1.643896
1.690984
1.212955
1.636744
1.710653
1.405478
1.555681
1.593828
1.862645
2.067685
1.793504
2.225637
1.578927
1.752973
1.453757
1.420975
2.002716
1.647472
2.639890
2.321601
2.113581
2.143979
2.922416
2.577901
3.076792
3.009439
2.903938
3.234744
3.668666
4.181862
4.399419
3.851652
4.466772
4.232526
4.049540
3.857613
4.028678
4.453659
4.175901
4.396439
5.279779
4.166961
4.032850
4.910827
5.119443
4.645586
3.901720
4.026890
4.115701
4.538894
3.909469
4.902482
4.054904
4.505515
4.622936
4.865527
4.579425
4.437566
4.833937
4.050732
5.627871
3.720522
5.108714
4.777908
4.816651
5.310774
5.813837
5.730987
6.401539
7.153749
8.528829
8.629560
11.362433
10.480881
10.532737
11.773705
11.720657
11.623502
10.612607
9.721518
9.062886
8.860826
7.889867
6.895661
6.063581
5.805492
4.493594
4.293919
4.634857
4.461408
3.989935
4.622936
4.389882
5.127788
5.085468
5.539656
##ZVALUE=215
4.614592
4.772544
3.699660
3.901720
3.367662
3.249645
2.226830
3.710985
4.035830
4.036427
4.367828
3.441572
3.468990
2.488494
1.834631
2.275705
2.365708
1.792908
2.047420
1.558661
2.513528
2.596974
2.892613
2.443790
2.611876
3.368855
3.811717
3.876686
4.458427
4.527569
4.751682
5.326867
5.537868
5.928874
5.969405
5.863905
6.032586
5.661845
5.208850
5.552769
5.857944
5.246997
4.983544
5.118847
4.503727
4.742742
5.098581
4.395843
3.950000
4.609823
4.666448
4.553795
4.545450
4.706979
5.028844
4.200935
4.816651
3.869534
4.586577
4.474521
3.976822
3.849864
3.903508
4.257560
3.923774
4.685521
4.826784
4.057884
4.884601
5.916953
6.101727
7.113814
7.707477
8.802414
9.738803
8.977652
9.529591
8.809566
8.986592
8.533597
7.963777
7.292628
5.650520
5.352497
5.051494
3.807545
5.221963
4.284978
4.351735
4.415512
4.633665
4.180670
4.357696
4.073977
4.314780
4.190803
##ZVALUE=220
14.473796
14.348626
16.925931
16.064644
14.591813
12.800694
11.497736
8.180737
7.757545
8.597970
8.008480
10.535717
8.947849
8.604527
7.667542
6.713867
4.569888
3.361702
2.607703
2.703667
2.307892
2.385974
3.047585
2.770424
3.607869
4.487634
4.511476
4.988909
5.219579
6.739497
6.727576
7.766485
8.994937
8.120537
8.426905
9.456873
10.094643
8.675456
7.915497
8.930564
8.845925
8.743405
8.287430
7.459521
8.457899
6.865859
6.659627
6.461740
6.450415
5.554557
6.069541
6.414652
5.397797
6.062984
5.621910
4.681945
4.848838
5.731583
5.829930
5.294681
5.316734
5.556941
4.804730
4.917979
5.036592
4.898906
5.117655
6.133914
6.530881
6.252527
7.181764
7.194877
8.643866
8.745790
8.873940
9.682775
10.223985
8.949637
9.886622
7.686615
9.303689
8.083582
7.250905
7.823706
6.472468
6.509423
7.332563
5.558729
6.527901
5.317926
5.524755
5.608797
5.862713
5.285740
5.140901
5.913973
##ZVALUE=225
24.064779
26.923418
33.628941
45.862794
51.226616
52.187443
49.778819
37.853718
33.500791
25.335550
21.631718
19.553900
20.600557
22.511482
24.844408
21.930933
18.282533
15.554428
10.639429
8.296967
5.423427
4.032850
3.141761
3.389716
3.702641
4.454851
5.312562
6.628633
7.283688
9.507537
9.140968
11.321902
10.168552
11.169910
10.347962
12.741685
13.907552
12.091994
11.887550
13.448596
11.740923
11.193752
11.484623
9.836555
9.775758
9.584427
9.126663
7.893443
8.026958
8.122921
7.703900
8.068681
7.330775
7.537603
6.751418
7.253885
6.499887
6.837845
7.697940
6.637573
6.722808
6.395578
6.953478
7.294416
6.987453
7.488728
7.794499
7.270575
7.591844
7.799864
8.258820
10.060668
11.179447
11.946559
11.620522
11.358857
12.193918
12.079477
10.951757
11.510849
10.481477
10.848641
10.469556
10.412931
8.523464
9.467602
9.417534
9.771585
9.646416
8.650422
7.968545
8.942485
10.029674
9.239912
9.741783
9.132624
##ZVALUE=230
21.875501
21.905899
41.586757
63.439608
85.727572
114.438534
130.072832
127.601624
115.986466
91.712475
75.201988
55.734515
39.907694
37.927628
41.211843
47.285557
47.599673
46.406984
43.266416
36.065578
25.699735
19.280910
10.587573
7.919669
5.610585
4.559755
5.133748
6.164908
7.357597
8.530617
9.242892
9.309649
11.122823
11.390448
12.459755
11.694431
12.699962
12.590885
12.701750
12.580752
12.997985
12.580752
13.156533
11.369586
11.186600
11.031628
9.559989
10.392666
9.733438
10.449886
9.197593
9.325743
9.271502
8.849502
8.570552
9.379983
8.783937
8.659959
9.880662
10.087490
10.351539
9.720922
10.261536
9.337664
9.587407
9.939671
11.300445
11.261702
11.400580
12.178421
13.304949
14.244914
14.994740
15.126467
18.015504
17.834902
18.314719
16.391873
17.354488
16.939640
16.210675
17.000437
16.595721
16.031861
16.106963
15.773773
16.380548
17.252564
16.026497
15.713573
15.451908
15.827417
15.652776
15.717745
15.888810
15.662909
##ZVALUE=235
7.690787
8.227825
17.783642
46.517849
78.254938
125.154853
169.690847
220.238566
247.828960
250.414610
227.992535
189.844966
135.388970
104.210973
77.090859
68.701506
71.185827
76.497793
82.038641
85.605979
79.472661
64.351559
49.867630
35.392642
25.815964
15.025735
9.926558
7.309914
6.503463
7.105470
8.538961
7.999539
9.249449
8.954406
10.112524
9.957552
10.670424
10.471940
9.714961
10.272861
9.932518
10.314584
10.518432
10.669827
11.483431
10.522604
10.634661
10.465980
9.284616
9.737611
11.407733
10.623932
10.812879
10.301471
11.572838
12.065768
11.782646
12.005568
11.939406
11.708736
12.793541
12.767911
13.577938
13.241768
14.529824
15.223622
14.339685
16.407967
16.574860
17.249584
19.737482
21.282434
20.906925
22.850633
24.408698
24.259686
23.949742
23.192763
25.079846
25.101900
25.386810
24.691820
25.808811
26.005507
25.197864
25.902987
25.661588
25.062561
25.224686
24.029613
25.492907
23.544431
26.169419
24.296641
23.585558
24.601817
##ZVALUE=240
1.609921
1.261830
3.805757
9.641647
27.499795
55.153966
111.212730
169.810653
263.543725
325.453877
379.811525
382.720828
358.660817
296.409726
233.602524
153.939724
117.295980
96.008778
90.665817
101.355910
111.642480
121.464729
113.422871
109.317899
82.607865
64.413548
45.548677
31.928420
20.435452
13.024807
10.606647
8.314848
7.975698
8.266568
8.847713
8.022785
9.718537
8.858442
9.518862
9.516478
9.125471
9.802580
11.012554
10.399818
10.342598
9.538531
10.525584
9.375811
10.996461
11.270642
10.051727
10.335445
11.046529
11.042953
10.631680
11.859536
11.697412
13.477802
12.650490
12.603998
13.306737
14.318824
14.745593
15.208721
16.167760
17.097592
17.887950
17.432570
19.584894
19.788742
21.764636
23.684502
23.221970
25.411844
26.827455
30.506849
28.733611
31.236410
32.062531
32.166839
30.472875
32.246709
31.763911
31.171441
32.049417
32.877922
33.561587
32.395720
32.178760
32.436848
31.641722
31.895638
31.752586
33.490658
34.962893
33.026934
##ZVALUE=245
0.997782
1.101494
1.364946
1.266599
3.009439
7.513762
25.624633
50.602555
119.881630
186.957717
291.478634
369.833708
431.062579
469.758511
442.237854
386.322737
312.229991
218.496919
160.860419
108.351707
95.862746
97.342730
112.831593
129.700899
128.791928
126.549602
113.490820
98.047853
71.601868
53.440928
37.275553
23.686886
16.089678
11.618733
9.950995
10.373592
9.415746
8.865595
10.231733
10.457635
10.292530
9.888411
10.300875
11.719465
11.271834
10.708570
10.748506
10.334849
10.396838
9.559989
11.839867
10.588765
10.474920
10.678768
11.265874
11.661649
12.073517
11.193752
11.548996
12.027621
11.992455
14.425516
13.280511
13.625622
13.601780
15.987754
16.083717
17.842650
18.860698
19.519925
21.027923
22.538900
23.370981
24.036765
25.645494
28.998852
28.056502
29.048920
29.099584
29.871464
30.332804
31.265616
31.814575
33.197999
33.960938
34.053922
32.681823
32.725930
34.257770
32.476783
34.106970
33.724904
32.332540
32.392740
34.245849
33.649802
##ZVALUE=250
0.888705
0.734925
0.937581
1.515746
1.076460
1.105666
1.568794
4.440546
18.517971
42.473674
104.719996
175.150633
257.150531
381.507874
464.909673
527.897477
523.963571
477.002859
409.331918
287.588835
202.025771
138.150454
93.552470
89.465976
108.092427
121.282935
138.481855
145.279765
138.215423
128.396749
108.591914
82.343817
62.092543
38.721561
26.621819
18.398762
14.249682
11.504889
11.473894
11.455417
11.921525
12.642741
12.287498
12.091994
11.088848
11.389852
11.463761
11.616945
11.358857
10.442734
11.038780
11.319518
11.657476
10.582805
11.176467
12.097955
10.430813
10.491610
11.804700
11.025667
12.122989
11.318922
11.954904
12.576580
12.689829
12.441874
14.238954
16.492605
17.553568
18.996596
18.492937
20.258427
21.765828
22.198558
24.025440
23.553967
24.523735
26.597977
28.355718
28.522611
28.436780
29.301643
30.414462
29.994845
30.957460
31.062961
31.062961
32.022595
31.890869
32.073855
30.106902
31.448603
31.392574
32.970905
32.788515
31.964779
##ZVALUE=255
0.855923
0.830889
0.742674
1.011491
0.924468
0.786781
1.144409
1.102686
1.307726
2.523661
12.834668
31.928420
67.169666
147.708654
231.032968
363.944769
458.384752
554.212928
586.355925
559.350848
493.487716
394.392014
253.463984
171.163678
105.851889
86.273551
89.887977
105.244517
132.764578
143.970847
152.455568
150.524974
139.066577
114.369988
89.950562
60.442686
46.807528
28.977990
22.468567
16.943812
15.333891
14.636517
13.992786
13.783574
14.279485
13.470650
13.285875
13.594627
12.940764
13.360977
12.749434
10.867715
12.359619
11.978745
11.567473
11.525750
10.735989
11.143684
11.068583
10.703802
11.192560
11.281967
12.208819
12.311935
11.899471
12.097955
13.884902
14.256835
15.289783
16.026497
17.401576
18.640757
19.727945
20.483732
21.778941
22.604465
23.917556
23.195744
24.109483
25.424957
26.400685
25.919676
27.397871
27.065873
29.384494
27.936697
29.937625
28.982759
29.532909
29.896498
30.088425
30.476451
29.884577
30.155778
31.194687
29.558539
##ZVALUE=260
0.900626
0.845790
1.022816
0.829697
0.932813
0.846982
1.328588
1.236796
1.258850
1.021624
1.363754
1.641512
4.868507
20.622611
48.959851
117.622614
194.529891
324.679017
434.256792
569.312572
632.253885
648.835897
580.963492
480.657816
329.038501
228.563547
138.356686
95.224977
79.347491
88.040829
108.463764
138.043761
153.429508
166.866779
159.416795
142.260790
123.342872
94.169974
72.558522
49.533844
36.304593
26.256442
20.216703
18.254519
17.108917
16.618967
15.538931
14.731884
14.923811
14.618635
13.583899
13.853908
13.564825
12.833476
12.840629
11.973977
11.987686
11.651516
12.206435
11.443496
11.527538
12.027621
11.356473
11.719465
11.795759
13.259649
12.982488
13.461709
14.629960
15.588999
16.655922
18.140674
18.274784
19.525886
19.758940
21.073818
21.358728
22.416711
22.913814
23.889542
24.964809
24.450421
24.561882
25.876760
25.789738
26.913881
26.289821
28.273463
26.716590
27.860999
27.806759
28.475523
28.747916
29.492974
28.739572
28.947592
##ZVALUE=265
0.754595
0.660419
0.765920
0.696778
0.721812
0.773668
0.811815
0.641942
0.975728
0.903606
0.915527
0.953674
1.045465
1.347661
3.146529
17.810464
47.650933
122.357011
213.676691
380.816460
517.821908
635.141730
727.563500
740.216970
653.709769
559.485555
416.224599
297.410488
170.302987
113.185644
83.813667
75.004697
91.329813
124.327540
147.095919
167.486668
171.533823
161.969662
151.057839
120.719671
99.826455
70.078969
52.399635
35.229921
26.956797
20.424724
18.888712
17.435551
17.278790
15.464425
15.615821
14.817715
14.057755
14.189482
13.368726
12.823939
12.576580
12.108684
12.419820
11.752844
11.225939
12.354851
11.644959
12.099743
12.047887
12.486577
12.425780
13.785958
14.487505
14.858842
16.104579
17.239451
17.536879
18.434525
18.913746
20.176768
20.787716
20.938516
22.019744
22.647977
22.861958
23.655891
23.660660
24.749637
24.490952
25.353432
26.197433
25.945902
26.323795
25.308728
26.537776
26.333928
26.808977
26.773810
26.792884
26.590824
##ZVALUE=270
0.631809
0.638962
0.638962
0.496507
0.546575
0.628829
0.630617
0.732541
0.687838
0.883937
0.876784
0.837445
1.076460
1.170635
0.969768
1.236796
1.796484
8.113980
24.231672
87.912679
173.782706
295.663476
490.685701
630.750656
753.824711
789.989829
746.801496
670.133829
519.943833
390.244722
274.025798
154.873729
98.587871
68.534613
73.692799
101.126432
122.552514
150.293708
167.701840
172.459483
169.789791
148.996711
127.756000
96.800923
73.860884
50.197840
36.156774
27.576685
21.472573
17.948747
16.685724
16.017556
16.171932
14.386773
13.573766
13.792515
13.529658
12.957454
12.643933
12.929440
13.118982
12.183785
12.459755
12.368560
13.234615
12.494922
13.101697
13.673902
13.937950
14.929771
16.305447
16.855597
18.081665
18.101931
18.718839
19.873977
19.892454
20.634532
21.210909
20.594597
22.294521
22.083521
23.243427
23.941994
24.067760
23.336411
24.461746
24.617910
23.981929
24.700761
24.721622
24.809837
24.415851
25.142431
25.302768
26.222467
##ZVALUE=275
0.422597
0.563860
0.382662
0.471473
0.619888
0.617504
0.580549
0.751615
0.701547
0.763535
0.946522
0.954866
0.833869
0.735521
0.882745
0.936985
1.079440
0.985861
1.280904
3.579855
15.249848
43.016672
122.437477
220.851898
396.837592
526.530743
671.266913
755.297542
782.715678
732.032657
640.743971
477.679968
342.186689
192.956924
117.961764
67.036748
58.217645
71.120858
91.227889
121.357441
145.480633
166.072845
170.143843
165.001750
147.619843
117.404461
95.170736
69.977641
50.012469
33.934712
25.245547
18.980503
16.431808
15.005469
14.214516
13.841987
13.576746
13.575554
13.195872
13.308525
13.342500
14.053583
13.103485
12.914538
13.565421
13.485551
14.292598
14.357567
14.595985
15.661716
16.079545
15.859604
17.041564
17.758608
17.850995
19.210577
20.063519
20.497441
20.392537
20.402670
21.004677
21.777749
22.062659
22.942424
23.605824
23.157001
23.384690
22.375584
23.554564
23.452640
24.012923
24.317503
24.668574
24.283528
24.371743
24.252534
##ZVALUE=280
0.437498
0.322461
0.682473
0.480413
0.675917
0.473857
0.442863
0.693798
0.654459
0.503659
0.451803
0.699759
0.529885
0.681877
0.596642
0.741482
0.666976
0.722408
0.718832
1.006722
1.082420
1.551509
10.454655
33.414960
94.915628
168.661475
303.827524
430.545807
594.511628
691.325665
761.295557
752.129555
679.941773
523.685813
394.408703
230.631828
142.105818
72.128773
49.004555
48.858523
62.761903
89.902878
113.488436
140.526891
155.497789
164.127946
156.169534
139.657855
119.294524
90.356469
67.815781
45.160651
31.920671
21.432638
17.028451
14.176965
13.026595
12.644529
12.415648
12.810826
13.365746
13.050437
12.897849
13.505816
13.491511
14.452934
14.271736
14.868975
14.832616
15.858412
16.167760
17.416477
17.114878
17.870665
18.689632
18.968582
19.671917
20.119548
20.596981
21.101832
22.044778
21.804571
21.927953
22.403598
22.025704
24.094582
22.497773
22.790432
22.967458
22.903681
22.974610
23.233891
23.787618
24.052858
23.431778
23.266673
##ZVALUE=285
0.532866
0.581741
0.295639
0.383854
0.431538
0.412464
0.448823
0.321865
0.410676
0.346899
0.519753
0.434518
0.535846
0.718832
0.509620
0.482798
0.684857
0.549555
0.662804
0.720620
0.750422
0.952482
1.031756
1.216531
3.755689
13.735890
46.363473
98.092556
211.889744
323.243737
446.411967
614.418983
714.797974
757.858753
719.295740
592.559576
470.167994
300.400853
191.349983
93.914866
53.781867
34.440756
38.989782
57.723522
77.534914
109.530687
128.422976
148.437619
151.783824
149.077773
138.431787
113.227963
91.728568
64.832568
46.304464
29.761791
20.444989
15.587807
13.565421
12.508631
12.812614
12.931824
13.121963
13.796687
13.054609
14.571548
14.315844
14.817715
15.686750
16.135573
16.873479
17.819405
17.734766
18.109679
18.556714
20.110607
20.197630
21.010637
20.622611
20.774603
21.373630
21.790862
21.678805
23.028851
21.926761
22.680759
22.952557
22.390485
22.878647
22.849441
23.240447
22.926927
22.610426
23.135543
23.075938
22.436976
##ZVALUE=290
0.422597
0.443459
0.419617
0.453591
0.349879
0.410676
0.317693
0.407696
0.395775
0.416636
0.434518
0.500679
0.302792
0.332594
0.516772
0.492930
0.436902
0.643730
0.649691
0.592470
0.724792
0.617504
0.960827
1.144409
1.015663
1.035929
1.709461
4.686713
23.711920
59.576631
118.324757
242.666602
371.353626
555.227995
668.744445
750.242472
745.793581
648.244023
536.683798
364.206433
245.789886
126.045942
69.466829
32.618642
26.753545
35.997629
50.235987
74.044466
96.572638
122.434497
138.205886
146.904588
145.204663
130.143762
112.077594
83.116889
64.126849
43.530464
31.092763
20.107627
16.070604
12.952685
12.816787
13.618469
13.246536
13.678670
14.229417
15.185475
15.649796
16.487837
16.892552
17.076731
17.705560
19.316673
19.483566
19.772649
20.406842
20.900965
20.519495
21.523833
21.855831
22.503734
22.293925
22.494793
22.083521
22.741556
23.036599
23.485422
22.679567
23.057461
23.170710
23.477674
22.395849
22.780895
22.182465
22.551417
##ZVALUE=295
0.473857
0.210404
0.261664
0.302792
0.491738
0.321865
0.451803
0.382662
0.466704
0.240803
0.412464
0.302792
0.517964
0.390410
0.527501
0.336766
0.477433
0.391603
0.421405
0.497699
0.525713
0.727773
0.554919
0.746846
0.847578
0.768900
0.882745
1.207590
1.363754
2.066493
11.359453
32.588840
94.045997
178.835988
341.220498
476.471782
648.635626
739.419460
774.849653
724.205971
587.921739
459.790826
285.700560
178.667903
82.399845
42.490959
21.568537
21.209717
31.964779
46.247840
70.281625
90.304613
115.639567
129.789710
140.167475
137.596726
122.158527
107.218623
83.744526
63.552856
43.857694
30.949712
21.136999
17.504692
14.595985
14.103651
14.487505
14.492869
15.269518
15.988946
17.757416
18.036962
18.895864
19.007921
19.921660
19.897819
20.142794
20.650625
21.759868
21.827817
22.023916
22.257566
22.060871
23.023486
23.104548
22.767782
23.377538
23.362637
22.846460
22.547841
23.102760
22.750497
23.286939
22.582412
22.811890
22.424459
##ZVALUE=300
0.465512
0.391603
0.340939
0.333786
0.395775
0.351667
0.312924
0.227690
0.247955
0.354648
0.318885
0.200868
0.440478
0.543594
0.333786
0.385642
0.497699
0.434518
0.493526
0.722408
0.592470
0.691414
0.623465
0.541806
0.733733
0.702739
0.712872
0.730753
0.989437
0.966787
1.165867
1.125932
3.402829
20.559430
52.433014
134.634972
235.915780
418.850780
571.597815
740.662813
819.744468
813.421607
727.555752
548.374653
399.706960
226.272941
132.013559
60.784817
31.463504
16.863942
17.830729
28.197765
40.325522
62.238574
82.501769
107.519627
123.261809
135.088563
132.093430
120.240450
104.722977
81.942677
64.397454
44.818521
32.513738
22.141933
18.524528
16.292930
15.873909
16.305447
16.639829
16.989708
17.909408
19.136667
19.164681
20.074844
20.628572
21.137595
21.761656
21.966696
22.272468
23.070574
23.131967
23.159981
23.262501
23.813844
23.747683
24.599433
24.037957
22.864938
23.340583
23.766756
23.562908
23.217797
23.142695
22.816658
##ZVALUE=305
0.211596
0.302792
0.186563
0.302792
0.365973
0.193715
0.286698
0.481606
0.231862
0.404716
0.344515
0.443459
0.465512
0.385642
0.367761
0.301600
0.250936
0.383854
0.341535
0.478625
0.562668
0.645518
0.645518
0.614524
0.644922
0.466704
0.799894
0.786781
0.855923
0.947714
0.707507
0.860691
1.076460
1.153946
2.689958
9.394884
38.431883
85.193515
197.668672
321.290493
523.259640
680.154562
831.753016
876.780748
812.644958
694.216490
494.995713
345.355868
182.039738
98.980665
37.165880
19.279718
13.516545
16.876459
26.374459
39.380789
61.903000
79.644918
102.703571
115.824938
126.703978
126.638412
116.607547
104.576945
78.345537
62.829852
44.112802
32.906532
23.321509
19.551516
18.087626
17.823577
18.593669
18.963814
19.431710
20.318627
20.875931
21.739602
21.885633
22.572875
23.175478
23.874640
23.626685
23.982525
24.093986
24.095774
25.118589
24.689436
23.952723
23.770928
24.279952
23.175478
23.610592
23.125410
23.100972
23.297668
##ZVALUE=310
0.397563
0.308752
0.456572
0.282526
0.394583
0.410676
0.236630
0.225902
0.331998
0.296831
0.332594
0.413656
0.371933
0.365973
0.490546
0.327826
0.481606
0.586510
0.323653
0.330806
0.392795
0.446439
0.497699
0.480413
0.461936
0.493526
0.442863
0.623465
0.602603
0.649691
0.722408
0.723600
0.860691
0.996590
0.931621
1.228452
1.372695
4.993677
16.378760
55.192709
110.118985
234.399438
364.804864
559.330583
701.777935
824.677944
842.673779
763.921738
651.629567
445.861816
299.567580
152.620673
80.291629
29.257536
14.611483
12.365580
15.489459
23.783445
35.239458
54.932833
71.535707
95.390677
109.140873
120.756626
122.530460
113.290548
100.528598
81.240535
64.708591
44.766665
35.161972
26.266575
22.383928
20.449758
19.546747
20.008683
20.579696
21.399856
22.128820
22.643805
22.960901
23.731589
24.772882
24.479628
24.866462
25.014877
25.428534
24.844408
25.160909
24.552941
24.290681
24.563670
24.315715
23.231506
23.508668
23.822784
##ZVALUE=315
0.259876
0.247955
0.236630
0.111461
0.223517
0.222921
0.293851
0.331998
0.198483
0.231862
0.317693
0.292659
0.313520
0.192523
0.187755
0.319481
0.159740
0.375509
0.324845
0.329614
0.268817
0.243783
0.333786
0.481606
0.614524
0.529885
0.493526
0.483990
0.466704
0.405908
0.464916
0.535846
0.561476
0.713468
0.555515
0.630617
0.833869
1.036525
1.124740
2.223849
8.289814
34.551620
76.675415
174.649954
288.714767
474.399924
605.428815
745.737553
809.648037
792.844892
716.787577
539.557934
389.072895
208.754539
112.296939
40.217638
18.037558
10.615587
10.857582
15.638471
22.195578
35.483837
49.127936
71.004629
86.634755
105.907917
114.297867
116.016865
110.593438
94.749928
80.093741
61.303973
48.323870
34.863949
28.147697
23.088455
21.483898
21.840930
22.007823
22.720695
22.798777
23.688674
24.044514
24.046898
23.827553
24.442673
24.387836
25.506616
25.057793
24.992824
24.362803
24.709702
24.685860
23.999810
23.908615
23.960471
##ZVALUE=320
0.120997
0.241995
0.074506
0.183582
0.192523
0.188947
0.253916
0.273585
0.197887
0.168681
0.199676
0.278950
0.347495
0.209808
0.053644
0.068545
0.075698
0.300407
0.165701
0.278950
0.195503
0.474453
0.301600
0.343919
0.465512
0.503659
0.523925
0.516772
0.262856
0.401735
0.380874
0.459552
0.549555
0.466704
0.547767
0.545979
0.720620
0.784993
0.741482
0.992417
0.867844
1.258850
4.025698
22.174716
51.805973
130.803585
216.603875
362.468958
481.393933
624.538660
693.130493
711.816549
669.167638
550.297499
426.167846
253.525972
148.523450
62.978864
28.752685
12.106895
9.925961
11.404753
14.245510
21.460652
30.748844
48.498511
62.708855
83.489418
97.653866
108.711720
110.538602
105.876923
95.434785
76.658726
62.142611
46.016574
37.101507
29.452443
26.144981
23.453832
23.026466
23.222566
23.363829
23.903847
24.298429
24.541616
24.870634
24.879575
24.377704
24.813414
24.886727
25.073886
24.582744
24.413466
24.395585
24.345517
##ZVALUE=325
0.184774
0.227690
0.212789
0.061989
0.238419
0.240803
0.186563
0.246763
0.284910
0.165701
0.255704
0.183582
0.158548
0.118613
0.271797
0.033975
0.302792
0.338554
0.348687
0.198483
0.291467
0.267625
0.253916
0.290871
0.277758
0.325441
0.423789
0.279546
0.448823
0.338554
0.286698
0.356436
0.421405
0.457764
0.509620
0.536442
0.510812
0.547767
0.629425
0.542998
0.679493
0.721812
0.905991
0.994802
2.169609
12.092590
32.243729
85.856915
153.964758
293.276906
411.168933
557.652712
636.239648
670.185685
633.691549
515.957475
403.815508
261.091590
166.175961
77.551603
40.740967
15.546679
10.349751
9.798408
11.038780
15.160441
20.409822
32.828450
45.642853
64.452887
79.599619
96.058846
104.162693
106.103420
101.467967
87.321997
74.489713
58.777928
47.562718
36.467910
30.705929
26.404858
24.636984
23.958683
24.117827
23.827553
24.031997
24.390817
24.245977
24.503469
24.217963
24.072528
23.724437
24.093986
24.028420
23.916960
##ZVALUE=330
0.056624
0.176430
0.151992
0.383854
0.249743
0.190735
0.071526
0.152588
0.216961
0.244975
0.183582
0.071526
0.258684
0.227690
0.293851
0.273585
0.197887
0.261664
0.458956
0.217557
0.287890
0.125766
0.152588
0.108480
0.250936
0.396967
0.419617
0.365973
0.358820
0.379682
0.351667
0.386834
0.436902
0.315905
0.382662
0.303984
0.504851
0.440478
0.586510
0.533462
0.592470
0.596642
0.565648
0.620484
0.771880
0.841618
1.253486
5.290508
17.665625
56.991577
112.404823
225.143433
335.374475
492.603779
596.174002
670.984983
656.739473
568.001866
464.555621
303.076506
197.858810
96.151829
51.562786
21.602511
12.072921
9.999871
10.113716
12.469888
15.386939
22.517443
30.555725
45.663714
58.941841
78.161955
90.692639
100.951791
101.792812
97.106695
87.252855
71.005821
58.877468
44.410825
37.668943
31.113625
27.825832
25.113821
24.445653
23.872852
23.372769
23.104548
23.702979
23.598671
24.080873
22.805929
23.049712
23.981929
##ZVALUE=335
0.085831
0.069737
0.231862
0.099540
0.083447
0.186563
0.323653
0.274777
0.231862
0.292659
0.378489
0.194907
0.352859
0.177622
0.129938
0.104904
0.203848
0.223517
0.077486
0.242591
0.394583
0.278950
0.311732
0.181794
0.229478
0.326633
0.326633
0.317693
0.347495
0.227690
0.402927
0.284910
0.356436
0.465512
0.227690
0.452995
0.308752
0.477433
0.288486
0.526905
0.598431
0.407696
0.519753
0.569820
0.657439
0.706911
0.576973
0.840425
0.924468
2.302527
8.387566
34.398437
73.534846
164.241791
263.808966
418.571830
527.174473
620.376468
642.839670
592.219830
510.147810
362.468958
252.154469
138.218999
75.038671
28.877854
15.369654
10.404587
10.128617
11.375546
12.505651
16.247630
21.910667
32.362938
43.653846
60.793757
74.088573
87.253451
95.281601
97.132921
92.158914
80.643892
71.235895
57.715774
48.014522
37.139654
31.559467
26.676655
24.802685
23.561716
23.177862
23.233891
22.973418
22.527575
22.352934
22.615790
##ZVALUE=340
0.163913
0.198483
0.080466
-0.014901
0.128746
0.171661
0.147820
0.318885
0.166893
0.146627
0.059605
0.234842
0.112653
0.271797
0.095963
0.127554
0.247955
0.195503
0.148416
0.284910
0.334978
0.154972
0.246763
0.195503
0.209808
0.208616
0.465512
0.296831
0.214577
0.312924
0.335574
0.205636
0.269413
0.180602
0.273585
0.284910
0.379682
0.373721
0.364780
0.493526
0.417829
0.454783
0.505447
0.441670
0.548959
0.506639
0.695586
0.594854
0.791550
0.798702
1.054406
1.021624
5.358458
17.439723
57.858825
115.684867
235.821009
340.594649
480.143428
567.622781
630.721450
614.223480
524.359941
423.638821
274.779797
179.305673
86.630583
45.156479
17.543435
11.293888
10.753870
11.118650
11.931658
13.202429
16.844869
21.391511
31.559467
42.398572
58.473945
70.616603
84.102750
90.029836
91.473460
88.256598
79.843998
69.256425
55.748820
46.253800
35.882592
30.420423
25.868416
23.861527
22.200942
21.783710
21.742582
21.727681
##ZVALUE=345
0.153780
0.117421
0.041723
0.022650
0.010729
0.107884
0.122786
0.189543
0.205636
0.282526
0.188947
0.096560
0.261664
0.290871
0.200868
0.263453
0.219941
0.216961
0.217557
0.219941
0.191927
0.138879
0.112653
0.237823
0.224710
0.235438
0.235438
0.162721
0.195503
0.161529
0.332594
0.328422
0.274777
0.270605
0.393987
0.361800
0.250936
0.403523
0.288486
0.411868
0.334978
0.320673
0.303984
0.441670
0.538826
0.314713
0.440478
0.481606
0.417829
0.433922
0.566840
0.666976
0.711679
0.963807
1.833439
12.019873
33.288598
87.423921
157.483816
284.574628
393.780470
528.285503
593.255758
615.371466
569.826961
453.625917
348.278880
214.002728
124.129653
52.506924
26.666522
12.860894
10.694861
10.853410
11.131763
12.195706
13.331771
16.628504
20.911694
29.837489
40.280819
54.446459
65.260530
78.090429
83.192587
85.048676
82.984567
74.141622
66.408515
54.328442
44.474602
35.176873
29.461980
24.871826
22.811890
21.024942
##ZVALUE=350
0.083447
0.042915
0.196695
0.126958
0.062585
0.242591
0.154972
0.264645
0.145435
0.124574
0.208616
0.368953
0.063777
0.138879
0.128746
0.238419
0.224710
0.100732
0.239611
0.142455
0.246763
0.164509
0.093579
0.196695
0.233650
0.336766
0.205636
0.205636
0.297427
0.289679
0.334978
0.249743
0.150800
0.140667
0.242591
0.248551
0.209808
0.331998
0.318885
0.287890
0.278950
0.355840
0.400543
0.400543
0.310540
0.236630
0.399947
0.305772
0.370741
0.510812
0.513792
0.468493
0.637770
0.723600
0.907779
0.846982
1.284480
6.336570
19.276738
57.996511
108.221769
219.892859
318.642855
448.932648
532.828569
586.380959
566.198826
478.152633
377.814770
235.991478
149.441957
71.644783
36.034584
15.512705
10.659695
10.167956
10.297894
11.165738
12.066960
13.806820
15.720725
21.748543
27.513504
36.472678
45.516491
59.943795
68.793893
75.846910
78.755617
76.474547
71.461797
60.597658
52.128434
40.630698
33.923984
27.753711
##ZVALUE=355
0.155568
0.071526
0.161529
0.285506
0.164509
0.089407
0.125766
0.126958
0.227690
0.164509
0.197887
0.205636
0.246763
0.129938
0.219941
0.115633
0.069737
0.130534
0.277758
0.015497
0.109673
0.093579
0.294447
0.250936
0.183582
-0.091791
0.011921
0.218749
0.328422
0.298619
0.383854
0.208616
0.426769
0.355840
0.157952
0.298619
0.300407
0.310540
0.234842
0.180602
0.280738
0.464916
0.358820
0.230670
0.248551
0.267625
0.354648
0.474453
0.524521
0.371933
0.336766
0.465512
0.543594
0.564456
0.464916
0.531673
0.569820
0.714660
0.824928
2.614856
9.500980
37.350655
75.777769
160.666704
257.125497
396.961570
487.191677
559.308529
561.352968
483.089685
395.943522
269.565582
174.554586
82.343817
42.985678
18.153787
11.022687
9.467602
9.993911
10.001659
11.012554
11.908412
12.890697
15.267730
18.508434
24.763942
31.530857
42.525530
51.502585
61.559677
67.592859
71.799755
70.624948
64.163804
58.092475
48.140883
##ZVALUE=360
0.149608
0.122786
0.218749
0.144839
0.063777
0.110865
0.318885
0.293851
0.100732
0.031590
0.104904
0.227690
0.358820
0.100732
0.116825
0.180602
0.112653
0.140667
0.096560
0.168681
0.166893
0.165701
0.127554
0.239611
0.252724
0.153780
0.121593
0.232458
0.123978
0.300407
0.165701
0.239611
0.238419
0.207424
0.083447
0.158548
0.082850
0.250936
0.237823
0.350475
0.387430
0.202656
0.327826
0.314713
0.236630
0.347495
0.236630
0.456572
0.446439
0.348687
0.455976
0.506639
0.514984
0.421405
0.412464
0.477433
0.582933
0.482798
0.600815
0.744462
0.828505
1.405478
4.107952
19.080639
45.876503
113.134980
187.994838
312.141776
417.793989
526.317954
559.026003
526.299477
448.328853
309.240818
206.422806
103.450418
56.715608
24.273992
13.158917
9.205937
9.140968
9.541512
9.590983
10.377765
10.823607
11.400580
12.926459
16.268492
20.043850
26.958585
34.531951
45.143962
53.137541
61.119795
63.759685
64.161420
##ZVALUE=365
0.169873
0.142455
0.211596
0.129938
0.127554
0.187755
0.114441
0.176430
0.161529
0.210404
0.205636
0.196695
0.193715
0.140667
0.033975
0.333786
0.181794
0.126958
0.171661
0.208616
0.060797
0.060797
0.219941
0.084639
0.163913
0.203848
0.196695
0.245571
0.159740
0.225902
0.236630
0.068545
0.327826
0.192523
0.267625
0.106692
0.291467
0.373721
0.325441
0.320673
0.291467
0.263453
0.245571
0.232458
0.333786
0.228882
0.216961
0.264645
0.194907
0.443459
0.473857
0.380874
0.230670
0.518560
0.439882
0.336766
0.423789
0.542998
0.563860
0.570416
0.533462
0.750422
0.889897
0.936985
1.900792
10.777712
28.841496
75.923800
141.285658
264.595747
365.517735
481.581688
542.587638
543.183684
487.463474
364.426970
263.542533
147.933960
82.702637
32.834411
16.002655
8.935928
8.421540
8.528829
8.822680
9.221435
9.202957
9.736419
10.412931
11.601448
13.752580
18.311739
22.791624
31.016469
38.136840
47.232509
##ZVALUE=370
0.114441
0.099540
0.096560
0.130534
0.058413
0.162721
0.212789
0.127554
0.201464
0.028610
0.123978
0.079870
0.250936
0.184774
0.167489
0.126958
0.183582
0.087619
0.127554
0.084639
0.170469
0.210404
-0.075698
0.063777
0.295639
0.384450
0.089407
0.247955
0.188947
0.316501
0.145435
-0.024438
0.235438
0.108480
-0.014901
0.161529
0.254512
0.183582
0.174642
0.154972
0.225902
0.200868
0.229478
0.184774
0.270605
0.086427
0.138879
0.199676
0.240803
0.252724
0.228882
0.317693
0.252724
0.333786
0.212789
0.432730
0.437498
0.465512
0.311732
0.333786
0.465512
0.463724
0.506639
0.568628
0.475645
0.850558
1.208782
5.638599
18.455982
56.423545
106.701851
205.159783
298.188925
417.329669
482.056737
500.909686
467.989445
374.892950
284.108520
165.656805
97.204447
41.421652
20.874739
9.524822
7.883906
7.631779
8.062720
8.128881
8.178949
8.516908
8.713603
9.550452
10.077953
12.051463
15.082955
20.299554
##ZVALUE=375
0.078678
0.114441
0.224710
0.031590
0.066757
0.171661
0.028610
0.120997
0.163913
0.112653
0.112653
0.216961
0.178814
0.124574
0.268817
0.158548
0.048876
0.104904
0.109673
0.221729
0.236630
0.041723
0.146627
0.058413
0.159740
0.188947
0.174642
0.221729
0.344515
0.355840
0.344515
0.254512
0.168681
0.241995
0.279546
0.035763
0.240803
0.123978
0.133514
0.283718
0.234842
0.361800
0.124574
0.142455
0.160933
0.170469
0.209808
0.328422
0.316501
0.271797
0.304580
0.327826
0.335574
0.400543
0.333786
0.288486
0.180602
0.177622
0.348687
0.397563
0.548959
0.433922
0.418425
0.381470
0.420809
0.430942
0.588894
0.828505
0.910759
2.634525
8.935928
33.280849
72.903633
163.611770
254.285932
380.262733
455.561876
510.168672
499.061942
419.543982
332.813859
209.216475
135.314465
70.354939
36.829710
14.269948
8.398890
6.952882
7.126927
7.259846
7.469654
7.661581
7.903576
8.137822
8.881688
9.360909
##ZVALUE=380
0.085831
0.036955
0.261664
0.084639
0.067949
0.126958
0.224710
0.221729
0.097752
0.168681
0.198483
0.232458
-0.049472
0.009537
0.152588
0.124574
0.123978
0.127554
0.099540
0.135899
0.229478
0.178814
0.119805
0.110865
0.250936
0.022650
0.163913
0.034571
0.078678
0.053644
0.089407
0.160933
0.084639
0.213981
0.105500
0.158548
0.203848
0.211596
0.240803
0.105500
0.314713
0.314713
0.137687
0.054836
0.230670
0.239611
0.114441
0.303984
0.245571
0.168681
0.225902
0.280738
0.295639
0.218749
0.200868
0.352859
0.240803
0.260472
0.152588
0.225902
0.247955
0.307560
0.454783
0.417829
0.321865
0.433922
0.459552
0.573993
0.492930
0.748634
0.740886
1.410842
4.626513
22.816658
53.655505
126.974583
207.961798
331.244469
430.878997
522.647500
541.375875
486.675501
410.240889
296.785831
205.732584
105.464458
56.056976
20.778775
10.455847
6.627440
6.424785
6.694794
6.864667
7.024407
7.157922
7.406473
##ZVALUE=385
0.028610
0.114441
0.177622
0.001788
0.040531
0.260472
0.141859
0.069737
0.189543
0.121593
0.094771
-0.015497
0.031590
0.148416
0.156760
0.172853
0.045896
0.069737
0.096560
0.338554
0.203848
0.046492
0.173450
0.107884
0.092983
0.182986
0.199676
0.033975
0.153780
0.149608
0.190735
0.223517
0.067949
0.188947
0.092983
0.233650
0.198483
0.320673
0.223517
0.347495
0.251532
0.243783
0.286698
0.182986
0.232458
0.200868
0.190735
0.165701
0.245571
0.234842
0.180602
0.176430
0.032783
0.235438
0.302792
0.294447
0.206828
0.327826
0.188947
0.317693
0.203848
0.293851
0.277758
0.498891
0.370741
0.336766
0.379682
0.498891
0.461936
0.531673
0.628829
0.688434
0.753999
0.955462
2.367496
13.133883
33.978820
86.388588
150.753856
271.885395
375.380516
506.540537
564.304590
578.545928
541.378856
434.745550
329.777002
197.278857
120.584965
54.709911
22.523999
7.366538
5.982518
5.911589
5.951524
6.256700
##ZVALUE=390
0.069737
0.066757
-0.014901
-0.014901
0.081658
0.069737
0.037551
0.137687
-0.096560
-0.029802
0.081658
0.180602
0.059605
-0.018477
-0.003576
-0.014901
-0.000596
0.145435
-0.017881
0.150800
0.096560
0.228882
0.155568
0.023842
0.030994
0.147820
0.112653
0.080466
0.075698
0.061989
0.114441
0.082850
0.096560
0.124574
0.115633
0.160933
0.157952
0.008941
0.080466
0.202656
0.271797
0.177622
0.199676
0.147820
0.112653
0.189543
0.309944
0.185966
0.073910
0.109673
0.195503
0.277758
0.230670
0.221729
0.049472
0.032783
0.228882
0.226498
0.197887
0.191927
0.287890
0.245571
0.129938
0.189543
0.260472
0.333786
0.212789
0.215769
0.289679
0.389814
0.520945
0.603795
0.596642
0.553727
0.627637
0.749826
1.290441
7.264614
22.672415
68.890452
129.201412
234.474540
310.317874
400.191545
445.977449
454.934835
420.317650
337.240696
261.240005
165.345669
101.190805
44.995546
23.003817
9.099841
6.110668
5.444884
##ZVALUE=395
0.182986
0.141859
0.275970
0.255704
0.229478
0.251532
0.233650
0.109673
0.224710
0.208616
0.218749
0.301600
0.127554
0.218749
0.257492
0.304580
0.217557
0.217557
0.224710
0.120997
0.314713
0.056624
0.089407
0.223517
0.275970
0.235438
0.256896
0.199676
0.230670
0.275970
0.225902
0.222921
0.346899
0.178814
0.453591
0.343919
0.298619
0.294447
0.326633
0.232458
0.307560
0.173450
0.180602
0.342727
0.286698
0.362992
0.307560
0.401735
0.319481
0.211596
0.277758
0.354648
0.224710
0.409484
0.376701
0.389814
0.290871
0.346899
0.378489
0.316501
0.360608
0.287890
0.471473
0.314713
0.396967
0.385642
0.555515
0.432730
0.416636
0.576973
0.611544
0.588894
0.696778
0.539422
0.666976
0.530481
0.623465
0.789762
1.071692
3.555417
19.580722
46.954751
106.753707
177.123547
287.489891
371.092558
453.773737
478.449464
455.600619
399.063826
293.960571
208.679438
113.996863
63.740611
26.029944
13.136864
##ZVALUE=400
0.057817
0.075698
0.015497
0.064969
-0.061989
0.151992
0.150800
0.045896
0.099540
0.166893
0.178814
0.026822
0.153780
0.095963
-0.052452
0.079870
-0.127554
0.101924
0.146627
0.085831
0.079870
0.298619
0.147820
0.210404
0.228882
0.121593
0.237823
0.262856
0.148416
0.234842
0.050664
0.042915
0.074506
0.152588
0.077486
0.217557
0.201464
0.114441
0.088811
0.213981
-0.009537
0.231862
0.216961
0.247955
0.148416
0.254512
0.307560
0.113845
0.247955
0.176430
0.154972
0.297427
0.254512
0.216961
0.136495
0.290871
0.224710
0.397563
0.330806
0.179410
0.384450
0.334978
0.294447
0.276566
0.172853
0.193715
0.263453
0.389814
0.348687
0.345707
0.528693
0.299811
0.412464
0.448823
0.333786
0.419617
0.451803
0.640750
0.478625
0.409484
0.822544
2.066493
8.184910
31.808615
69.701672
155.375600
244.143605
364.173651
440.194011
495.252609
496.081710
430.737734
350.484848
233.735442
155.434608
79.135895
##END
