##TITLE=FQP00302
##FORMAT=SPECTACLE-ASCII V-1.2
##DATA TYPE=ULTRAVIOLET SPECTRUM
##SECOND TYPE=ULTRAVIOLET SPECTRUM
##DATE=01/21/18
##TIME=17:27:23
##SPECTROMETER/DATA SYSTEM=SPECTACLE
##XUNITS=NM EM
##YUNITS=ENERGY
##YFACTOR=1
##FIRSTX=220
##LASTX=410
##NPOINTS=96
##3DDATA=Equidistant
##ZUNITS=NM EX
##FIRSTZ=210
##LASTZ=400
##ZPOINTS=39
##XYDATA=(Y..Y)
##ZVALUE=210
1.603961
2.139807
1.551509
1.578927
1.649857
1.711845
1.922846
1.913905
1.796484
2.166629
2.335906
2.049804
1.922846
2.096891
1.953840
2.375841
2.029538
1.878738
2.371669
2.461672
3.103614
3.135800
3.338456
2.975464
3.843904
3.536940
4.023910
4.543662
4.394650
4.771948
5.161762
5.136728
5.847812
5.313754
5.204678
5.180836
5.664825
6.142855
5.899668
5.573630
5.233884
5.977750
4.931688
5.530715
5.313754
5.316734
4.948974
5.592704
4.742742
5.142689
5.705953
4.442930
5.540848
4.306436
5.118847
4.434586
5.408525
4.740953
4.634857
4.676580
5.036592
4.819632
4.515648
4.713535
4.704595
4.838705
4.967451
5.380511
6.428957
6.759763
7.905960
8.935928
10.369420
11.402965
11.963844
13.260841
14.128685
14.242530
14.547706
15.144944
13.702512
11.333823
12.750626
9.466410
9.052753
8.328557
6.365776
4.965663
4.935861
4.321933
4.273653
5.536675
5.289912
5.123615
4.820824
4.873872
##ZVALUE=215
5.287528
5.081892
4.009604
3.390908
2.826452
3.002882
3.176928
3.694892
3.824830
3.888607
4.048944
4.157424
2.675653
2.834797
2.062917
1.869798
2.260804
2.332926
2.314448
3.236532
2.396703
2.695918
2.737641
3.066659
3.231764
4.237890
5.084872
5.131960
5.562901
5.810857
6.687641
8.633733
8.974671
9.518862
8.702874
8.614659
9.177923
9.929538
9.773970
9.081960
8.407831
7.983446
7.937551
7.417798
8.681417
7.334948
6.408691
6.878972
6.602407
6.598830
6.477833
6.026626
6.112456
5.484819
6.276965
5.644560
5.634427
5.184412
5.582571
5.414486
5.217791
5.604625
4.782677
4.815459
5.316734
5.222559
5.512834
6.297827
6.450415
7.044673
7.125735
9.035468
9.402633
11.123419
10.180473
11.334419
11.990666
12.071729
11.054873
11.158586
9.603500
10.220408
8.783937
8.150935
6.618500
6.204844
5.159974
5.083680
5.193949
5.145669
4.282594
4.681945
4.295707
4.240870
4.336834
4.994869
##ZVALUE=220
14.178753
15.506744
16.569495
16.809702
14.921427
13.210773
9.675622
9.940863
7.981658
8.594990
9.557605
9.809732
9.664893
8.747578
6.950498
7.144809
4.697442
3.660917
3.560781
2.679825
2.904534
2.690554
3.019571
3.469586
3.641844
5.059838
6.111860
7.461905
8.504987
9.989738
12.484789
12.094975
12.676716
14.976859
16.410947
15.794635
16.583800
15.377998
16.535521
14.067888
14.076829
13.922453
13.144612
13.075471
12.232661
12.573600
11.402965
10.102987
10.360479
9.368658
9.870529
9.435415
9.268522
7.807612
7.824898
8.313656
8.341670
7.387996
7.600784
7.354617
6.873608
6.785989
6.766915
7.729530
7.019639
6.344914
6.567836
7.055998
8.197427
8.034706
8.915663
8.270741
9.534955
11.541843
11.862516
12.475848
12.552738
12.392998
11.816621
12.403727
11.407733
10.167956
9.890795
8.362532
8.034706
7.543564
6.951690
6.298423
6.891489
6.208420
6.538630
6.093979
6.041527
6.257892
5.948544
5.897880
##ZVALUE=225
25.713444
28.620958
39.365888
47.019720
57.109594
60.338974
53.219795
42.702556
34.524798
25.842786
19.159913
21.348000
21.646619
24.321675
22.654533
21.696687
19.834638
15.897751
10.691881
7.269979
5.665421
3.992915
4.416704
3.621578
4.752874
5.811453
7.599592
7.908940
10.535717
11.675954
15.068650
15.499592
19.646883
20.569563
20.309687
22.652745
22.637844
20.974874
22.016764
20.911694
20.293593
19.004941
20.451546
17.878413
17.290711
16.407967
14.766455
15.217662
14.480948
12.822747
13.720989
12.177825
12.794733
11.806488
11.624694
10.635853
10.453463
10.760427
10.590553
9.974837
10.363460
10.174513
9.274483
8.628964
8.498430
9.185672
9.187460
10.209680
10.965466
9.492636
10.723472
12.043715
12.898445
14.515519
15.005469
14.750957
14.202595
15.078783
15.713573
14.093518
13.930798
13.039708
12.191534
11.586547
11.696815
10.236502
11.273623
9.054542
9.735823
11.283755
10.813475
9.659529
10.157824
9.953976
9.112954
11.042953
##ZVALUE=230
25.949478
27.165413
45.597553
76.221824
102.235675
138.202906
150.667429
154.306889
146.912932
119.045973
91.264844
64.150691
48.002601
44.112802
41.793585
46.658516
49.424767
50.481558
43.089986
36.405921
24.569631
18.431544
11.282563
8.083582
6.070733
6.278753
6.032586
8.323789
9.729862
11.410713
12.705922
16.144514
16.500950
17.245412
18.681884
19.775629
20.188689
19.467473
20.743608
21.085739
19.928813
19.746423
17.784834
18.354654
16.516447
17.720461
16.685724
15.640855
16.283989
14.459491
15.336871
13.474822
13.695955
13.825893
12.571812
13.294816
13.065934
13.988614
12.150407
12.863874
12.526512
12.503862
12.595654
12.591481
13.463497
13.341904
13.255477
14.287829
13.532639
14.297962
14.826655
18.153787
18.743873
18.668771
19.970536
21.481514
19.718409
20.175576
20.027757
21.553636
18.673539
18.789768
19.421577
18.612742
19.226670
17.785430
18.194914
18.908978
17.563701
16.573668
17.748475
16.437769
17.352700
17.060637
16.089678
16.774535
##ZVALUE=235
7.920861
10.741949
23.356676
57.185888
96.301436
155.360699
209.349990
277.131796
307.044983
310.600996
275.609493
233.504772
159.533620
119.994879
87.651610
74.362755
72.179437
76.352954
81.262589
85.374713
78.025460
67.576766
54.248571
37.107468
24.500489
15.450716
11.106730
8.821487
8.611679
10.095835
10.325909
12.252927
12.093782
13.621449
14.679432
14.296770
14.081597
15.748739
16.631484
16.923547
17.316937
16.111732
15.218854
15.630722
18.352866
15.958548
14.654994
14.439821
13.945699
14.624000
13.903975
14.338493
15.081763
13.494492
14.410615
14.875531
15.204549
13.209581
13.867617
14.774799
15.099645
15.902519
16.375780
16.196966
16.435981
17.225742
17.748475
19.596815
20.898581
20.374656
22.433996
24.474859
25.061965
27.219653
26.431680
29.421449
27.794838
28.508902
26.192665
28.154850
28.851628
27.983785
29.812455
27.708411
26.192665
27.572513
29.117465
26.279688
29.517412
26.711822
25.956631
24.709702
25.902987
26.391745
24.800897
25.316477
##ZVALUE=240
1.447797
1.625419
5.022883
12.980700
36.184788
75.397491
152.477622
232.521892
357.253551
427.019000
488.327742
479.120612
438.624620
358.207822
279.644728
185.940862
136.760473
102.225542
96.315742
106.130838
111.570954
119.425654
116.215944
105.290413
83.398819
68.449974
47.985911
35.130978
21.289587
14.385581
12.927651
10.459423
11.411905
11.596680
12.485981
12.280941
12.095571
13.713837
13.292432
13.566613
14.336705
14.771819
15.684962
14.555454
14.454722
14.755726
14.330745
14.963746
14.317632
14.615655
14.603734
14.567971
14.532804
14.467835
15.224814
15.738606
16.007423
16.503930
16.910434
16.419888
16.492605
17.297864
18.899441
19.042492
18.785596
21.202564
19.934773
21.594763
21.707416
25.133491
25.055408
26.879907
29.088855
29.493570
31.951666
33.395886
34.961700
33.577681
35.710931
36.532879
35.365820
34.144521
35.925508
34.397840
37.282705
35.198927
35.460591
34.344792
33.786893
34.502745
33.913851
32.099485
35.168529
32.718778
33.841729
34.188628
##ZVALUE=245
1.049638
1.321435
1.480579
1.284480
2.768636
9.896755
26.111603
80.529451
144.703984
266.713500
377.317667
495.115519
561.351776
582.367778
546.866655
452.193618
362.754464
252.837539
178.128481
117.279887
100.541711
100.766420
119.179487
130.465627
129.576921
133.257508
116.023421
97.022653
73.648691
58.873892
37.449598
28.600693
20.404458
16.100407
15.959740
16.409755
15.590787
15.653968
15.632510
16.137958
16.455650
16.615987
15.685558
16.620755
16.612411
16.254783
16.474724
15.916824
16.751885
16.540885
15.643835
14.372468
14.712811
15.642643
14.256835
14.578700
15.553832
15.521646
14.933944
15.623569
15.969872
16.172528
17.407537
18.617511
17.466545
17.558932
18.971562
19.933581
20.516515
23.415685
24.154782
26.777983
27.725697
29.067993
31.187534
31.676888
32.721758
34.960508
35.218000
33.763647
34.462810
34.200549
35.346746
33.910871
33.765435
33.030510
33.965707
34.987926
35.066605
36.207438
35.581589
34.151673
34.692883
34.330487
35.959482
35.624504
##ZVALUE=250
1.152754
1.302958
0.937581
1.108646
1.129508
1.259446
2.049804
5.448461
23.245811
56.610703
139.705539
231.528878
341.849923
490.038991
576.671958
633.227825
613.029003
550.948977
455.983877
313.707590
219.731927
149.293542
102.149844
93.129873
106.292963
127.332807
139.773488
150.504708
142.468810
136.774778
116.344690
90.247989
70.322752
47.955513
34.786463
26.991963
23.150444
22.612810
21.733642
20.083785
20.758510
20.184517
21.262765
20.094514
19.193888
19.501448
18.866658
18.706918
18.067956
18.282533
17.212629
17.679930
17.698407
15.384555
15.905499
15.648603
16.342998
15.833974
14.901757
15.574694
15.414953
15.874505
17.160773
15.644431
17.515421
17.742515
17.546415
18.804669
19.398928
20.557642
22.038817
23.267865
24.753809
26.337504
26.556849
26.810765
29.164553
30.704737
29.005408
30.321479
31.300783
32.091737
31.179786
32.520890
31.101704
32.831430
32.118559
32.830834
32.398701
33.410788
34.588575
33.712983
32.829642
33.132434
32.081604
32.365918
##ZVALUE=255
0.834465
0.897646
0.878572
0.914931
0.843406
0.954866
0.919700
1.293421
1.291633
3.451705
11.586547
40.824413
87.950826
185.198784
283.396840
430.539846
533.667803
634.506941
657.950640
613.961816
538.225770
437.491536
278.024673
181.878805
109.729767
91.026425
94.082952
112.652779
138.261914
155.172944
161.969662
161.423683
150.878429
124.744773
108.295679
77.167749
61.291456
43.261647
37.224889
29.510856
31.294823
27.305484
28.402805
26.807785
25.705695
25.451779
24.700761
24.181604
22.268891
22.788644
21.436810
21.293759
19.352436
19.598603
18.097758
18.501878
17.940998
17.118454
16.624928
16.753674
16.743541
15.973449
16.823411
17.027855
16.194582
17.655492
17.003417
19.002557
17.893910
19.090772
19.706488
20.757914
22.057891
22.894740
23.500919
24.888515
25.656819
25.929809
25.751591
27.586818
27.827621
27.627945
28.643608
29.052496
29.465556
30.341744
29.186606
29.445887
31.286478
29.815435
30.744672
31.365752
29.688478
31.773448
30.547976
31.797886
##ZVALUE=260
0.972748
0.712872
0.717640
0.611544
0.643730
0.847578
1.005530
0.821948
1.091957
1.198649
1.297593
1.603961
5.084872
22.328496
52.039623
124.606490
209.365487
351.395607
468.965769
606.890917
670.775771
678.022504
607.551932
498.296618
337.127447
237.596631
145.453811
103.799701
90.019703
98.953843
125.574470
148.806572
170.162916
185.365677
182.776451
164.162517
148.239732
114.924908
93.092918
69.902539
55.143833
44.397712
39.148927
35.050511
33.450723
32.601953
31.101704
29.082894
28.614998
25.762916
26.496649
25.660992
23.937821
23.960471
22.136569
20.583868
19.773841
19.043684
18.630624
17.460585
17.482638
17.359853
17.565489
16.277432
17.414689
16.234517
17.189980
17.623901
18.630624
17.962456
19.078851
20.282865
20.659566
21.430850
21.941662
24.198890
23.543835
22.907853
24.605989
25.946498
25.927424
26.648641
27.358532
26.044846
27.855635
27.591586
27.885437
28.353930
29.015541
29.296875
28.249621
28.294921
29.615760
28.714538
29.838681
29.732585
##ZVALUE=265
0.550747
0.751615
0.628829
0.683665
0.550747
0.763535
0.740886
0.783801
0.912547
1.028776
1.030564
1.134872
1.207590
1.494884
2.994537
16.066432
37.694573
97.546577
172.218680
315.219760
453.749895
578.112602
704.573989
728.564858
675.358772
578.176975
438.084006
318.145752
191.189647
130.261779
99.082589
94.919801
110.715628
146.865845
171.637535
194.559693
199.170709
196.765661
173.713565
150.324702
126.774907
95.920563
75.139999
57.286620
47.671795
40.373802
37.964582
34.284592
33.120513
31.586885
31.338930
28.770566
25.652647
25.340915
24.822950
22.725463
22.275448
20.090938
19.848943
19.705892
18.637776
18.144846
17.685890
17.216802
17.097592
16.853809
17.382503
17.842650
18.181801
17.781854
19.066930
18.935800
19.516945
21.266937
22.002459
21.599531
22.058487
23.564696
22.903681
24.018884
24.303794
25.185943
25.638938
26.357770
26.255846
26.474595
26.170611
26.903749
27.468801
27.674437
27.858615
26.983619
27.991533
28.353930
28.949976
28.597713
##ZVALUE=270
0.519753
0.723600
0.512600
0.680685
0.410676
0.620484
0.809431
0.749826
0.782609
0.704527
0.860691
0.643730
0.991821
0.787973
1.082420
1.182556
1.441836
6.468892
21.006465
65.901875
134.584904
232.821703
410.823822
547.843575
699.265599
752.626657
748.255849
680.529475
538.190007
411.648750
265.540481
175.860524
121.263862
92.671514
97.633004
125.153661
148.755908
179.525614
193.549991
201.537609
198.035836
177.899003
153.898597
120.491982
100.264549
70.791841
56.926608
44.350624
38.003922
34.780502
31.925440
29.099584
28.797984
26.004910
25.846958
23.667812
22.285581
21.559596
19.742846
20.085573
19.097924
19.272566
18.287897
17.689466
17.317533
17.575622
17.946959
18.124580
18.006563
18.623471
18.716455
19.590855
19.655824
20.531416
20.927787
21.922588
21.878481
22.337437
23.441911
23.405552
23.727417
23.560524
24.549961
24.517775
24.291873
25.070906
25.556684
25.533438
26.031733
25.454760
26.427507
26.116967
25.466681
26.205778
27.218461
26.539564
##ZVALUE=275
0.640750
0.662804
0.659823
0.547767
0.536442
0.789762
0.699759
0.846982
0.553727
0.771880
0.628829
0.780821
0.820756
0.930429
1.050830
1.236796
1.176000
1.201630
1.018643
2.846718
11.291504
33.458471
101.526976
193.090439
355.575681
488.801599
643.921494
735.566616
780.173540
744.588971
657.754540
497.867465
361.802578
210.251808
136.735439
86.926818
78.532696
91.752410
112.924576
144.668818
166.777968
186.400414
192.314982
182.616711
167.453885
136.345625
114.218593
86.371899
66.847801
46.549439
37.951469
30.155778
26.296973
25.227666
22.784472
21.468997
21.635890
20.301938
19.883513
19.513965
18.780828
18.177629
18.620491
18.728971
17.332435
18.090606
17.285943
17.992854
17.694831
18.469691
18.443465
18.817782
19.692779
20.630956
21.326542
21.904707
21.741986
22.625923
22.347569
22.992492
23.532510
23.787618
23.633838
24.175644
24.568439
24.719834
24.279952
25.050640
25.169849
24.279952
24.544001
24.971962
25.190711
25.578737
25.532842
25.921464
##ZVALUE=280
0.626445
0.564456
0.604987
0.565648
0.623465
0.642538
0.757575
0.583529
0.638962
0.862479
0.634789
0.779629
0.960827
0.825524
0.813603
0.982881
0.916719
1.041889
1.198649
0.982881
1.136661
1.510978
7.025599
24.089813
78.217983
146.854520
272.874832
401.128531
578.442812
696.221590
766.299963
767.951608
693.265796
538.039804
405.360460
239.785910
153.264999
82.756877
60.061812
59.984922
74.343681
100.832582
125.284791
151.064992
165.575743
171.500444
166.108608
147.314668
127.587914
97.668767
76.076984
52.275658
40.239692
28.548837
22.865534
19.830465
18.553734
17.951727
17.847419
17.046928
16.900897
17.117858
17.614961
17.639995
17.249584
18.007755
17.821789
17.443895
18.559694
17.889738
18.540621
19.452572
19.292831
20.248890
21.031499
21.292567
21.721721
22.165775
22.582412
22.960901
23.004413
23.121834
23.900867
22.870898
23.513436
24.958849
24.292469
25.330782
24.373531
24.037957
24.251938
24.430752
24.034977
24.416447
24.269819
25.117993
##ZVALUE=285
0.382662
0.375509
0.411868
0.388622
0.571609
0.670552
0.709891
0.469685
0.663996
0.501871
0.434518
0.583529
0.654459
0.561476
0.764728
0.776649
0.638962
0.671744
0.771880
0.816584
0.863671
0.965595
1.132488
1.037717
3.400445
11.411905
41.105747
91.438890
198.997855
313.091874
416.229963
615.258813
717.735887
772.516727
729.501843
602.864623
476.341844
300.588608
194.329619
99.216700
57.379603
39.293766
43.779612
62.979460
82.989931
113.804936
132.639408
149.629712
158.944726
154.128671
141.547918
117.506981
94.605684
68.658590
50.290823
32.894611
24.032593
18.874407
16.396642
15.629530
15.251637
16.012788
15.849471
15.973449
16.920567
16.693473
17.118454
17.188787
18.100739
18.316507
18.823743
19.789934
19.961596
20.275712
20.068884
21.456480
21.072626
21.889806
21.477938
21.354556
22.531748
22.881627
23.975968
24.348497
23.168921
23.687482
24.261475
23.981929
24.222732
23.665428
25.068521
23.828745
23.806691
23.677945
23.974776
23.645759
##ZVALUE=290
0.346899
0.382662
0.497699
0.439882
0.432730
0.504851
0.269413
0.491738
0.276566
0.354648
0.517964
0.389814
0.581741
0.441670
0.341535
0.531673
0.574589
0.584722
0.601411
0.647902
0.844598
0.752807
0.890493
0.955462
1.013875
1.076460
1.523495
4.598498
22.115707
54.965615
110.157728
234.366655
366.549492
553.540587
672.866702
763.854980
754.011869
655.518770
540.922880
369.128585
245.487690
125.391483
70.264935
34.332871
28.062463
38.122535
52.624941
76.638460
97.947717
126.413703
141.511559
149.800777
147.324800
133.807659
113.366842
86.750984
65.107942
44.979453
32.161474
22.117496
17.377734
15.000701
14.832616
15.010834
15.246868
15.883446
16.013980
17.093420
17.294884
17.478466
18.073916
19.538999
19.807816
20.383596
20.571947
21.283627
21.700859
22.251606
22.281408
23.116469
23.178458
23.486614
23.727417
22.758842
23.347735
23.415685
24.441481
23.908615
24.126768
24.137497
23.907423
23.835897
23.906827
23.095608
23.985505
23.665428
##ZVALUE=295
0.481606
0.426769
0.389814
0.450611
0.451803
0.419617
0.316501
0.384450
0.420809
0.610948
0.432730
0.439882
0.369549
0.510812
0.596642
0.331998
0.567436
0.635982
0.504851
0.504851
0.644922
0.503659
0.723600
0.687838
0.809431
0.898838
1.021624
1.056790
1.132488
1.991987
7.172823
32.011867
76.538920
181.843638
297.971964
481.825471
604.466796
725.060701
754.627585
700.262785
602.344871
432.693958
304.533839
164.079666
92.921853
38.503408
23.771524
22.699833
30.426979
49.406886
67.451000
94.474554
113.771558
133.261681
141.381621
138.157606
126.388669
107.426643
88.152885
62.543750
47.121644
31.000972
24.066567
17.433763
15.933514
14.849901
15.591979
16.101599
16.584992
17.775893
17.812848
18.626451
19.491911
19.832850
20.412803
21.075606
21.905899
22.331476
22.574663
23.447871
22.913814
23.924708
24.336576
23.555756
23.614764
24.462938
24.506450
24.278760
23.789406
25.072694
24.325848
23.876429
23.901463
24.295449
23.691654
23.393631
##ZVALUE=300
0.274777
0.388622
0.305772
0.488758
0.353456
0.279546
0.366569
0.252724
0.375509
0.313520
0.212789
0.367761
0.251532
0.326633
0.350475
0.310540
0.434518
0.527501
0.507832
0.611544
0.453591
0.590682
0.531673
0.622869
0.692606
0.674725
0.631809
0.739694
0.889897
0.816584
1.047850
1.218915
4.564524
16.924739
58.113933
117.258430
245.167613
373.589993
548.349619
655.307770
740.072727
735.652447
644.039512
531.281829
351.907015
231.602788
118.032694
64.081550
28.076768
16.827583
19.478798
27.137995
44.308901
61.226487
85.186958
105.263591
126.098990
136.141777
133.103728
124.933720
105.804801
87.164640
63.588619
47.564507
31.208992
23.452640
18.514991
16.920567
16.088486
16.354918
17.532706
17.658472
18.401742
19.560456
20.191669
20.998716
21.903515
22.262931
22.213459
22.582412
22.888780
23.854971
24.351478
24.575591
24.538636
24.686456
24.100542
25.049448
24.913549
24.169683
23.443699
23.522973
23.526549
23.455620
23.321509
23.707747
##ZVALUE=305
0.350475
0.321865
0.347495
0.203848
0.351667
0.300407
0.326633
0.298619
0.259876
0.162721
0.255704
0.314713
0.278950
0.399947
0.413656
0.263453
0.456572
0.381470
0.456572
0.424981
0.423789
0.333786
0.381470
0.550747
0.639558
0.484586
0.506639
0.627637
0.753999
0.782609
0.892878
0.912547
1.041889
1.124740
1.967549
11.290908
31.783581
93.157887
170.015693
320.681930
447.287560
612.463951
703.056455
732.578635
685.737729
544.877648
424.659848
269.482732
171.110630
81.042647
40.961504
17.521977
13.297796
18.190742
25.432706
42.068958
57.861805
82.287788
99.778771
119.111538
126.356483
125.944614
118.074417
101.033449
84.108710
60.786605
46.057701
32.351613
25.220513
20.105839
18.149614
18.862486
18.989444
19.200444
19.758940
20.814538
21.169782
22.529960
22.824407
23.032427
23.767948
24.571419
24.425983
24.837852
24.796724
25.217533
24.935603
24.855733
24.775863
25.358796
24.954677
24.482608
24.235845
24.152994
23.585558
23.765564
##ZVALUE=310
0.270605
0.364780
0.223517
0.242591
0.382662
0.325441
0.224710
0.420809
0.364780
0.282526
0.245571
0.228882
0.438690
0.385642
0.284910
0.254512
0.293851
0.500679
0.344515
0.511408
0.364780
0.477433
0.598431
0.454783
0.355840
0.574589
0.296831
0.691414
0.540614
0.535846
0.627637
0.625849
0.723600
0.825524
0.926852
0.927448
1.377463
3.644824
19.581914
49.042702
123.395920
214.003921
377.754569
505.114794
650.850534
707.996488
700.879693
635.343790
490.719676
362.170935
209.402442
126.318932
56.988001
28.597713
13.147593
11.768937
16.948581
22.891760
36.717653
51.413774
73.553920
91.924667
110.884905
118.926764
121.359825
115.268826
99.946856
82.959533
62.005520
46.762824
34.202933
27.564764
23.077726
20.582676
20.388961
21.099448
21.363497
22.108555
22.735596
23.410916
23.978949
24.418831
24.224520
24.975538
25.738478
26.152730
25.487542
25.024414
25.274754
25.389791
25.301576
25.280714
24.840832
24.671555
24.726987
24.982691
##ZVALUE=315
0.162721
0.211596
0.045896
0.236630
0.278950
0.110865
0.392795
0.327826
0.312924
0.121593
0.235438
0.383854
0.284910
0.299811
0.264645
0.316501
0.364780
0.360608
0.444651
0.246763
0.332594
0.559688
0.423789
0.390410
0.350475
0.421405
0.489950
0.525713
0.647902
0.474453
0.539422
0.646710
0.691414
0.681877
0.565648
0.928640
0.773668
1.151562
1.047850
2.280474
8.346438
34.656525
77.351928
178.007483
289.699435
465.198755
575.190783
679.864883
709.990859
656.365752
563.130975
404.913425
284.922719
154.916644
85.470676
34.135580
17.247796
10.663867
11.384487
15.680790
22.192001
35.162568
49.147606
70.100427
86.170435
106.358528
115.027428
116.458535
110.688806
95.260739
80.832839
62.492490
48.913956
35.095811
29.137731
23.829937
22.593737
22.015572
22.552609
23.500919
23.925900
24.004579
24.339557
25.034547
25.523901
25.697947
26.089549
26.180744
25.407672
25.825500
25.031567
25.253892
25.282502
24.309754
25.090575
24.583936
##ZVALUE=320
0.146627
0.200868
0.128746
0.099540
0.282526
0.171661
0.299811
0.325441
0.265837
0.273585
0.208616
0.285506
0.165701
0.254512
0.409484
0.206828
0.282526
0.322461
0.407696
0.316501
0.325441
0.286698
0.332594
0.449419
0.457764
0.397563
0.456572
0.551939
0.479817
0.558496
0.569820
0.463724
0.509620
0.771880
0.714660
0.447631
0.675917
0.590682
0.717640
0.871420
0.796914
1.393557
3.653765
19.451976
49.373507
127.530694
215.925574
364.318490
486.097932
627.537966
683.614016
675.173998
615.477562
474.697948
349.397659
198.497772
115.075707
51.206946
25.365949
11.706948
10.024905
11.329651
14.379621
21.327734
30.394793
48.734546
63.582659
82.640648
98.067522
110.437870
112.300515
107.229948
97.199678
76.330900
63.438416
46.731830
37.457943
30.055642
26.935935
24.601817
24.331808
24.052858
24.591684
25.085807
25.353432
25.611520
25.531650
25.228858
25.675893
25.775433
25.781989
25.224686
25.445819
24.422407
25.720596
25.479794
##ZVALUE=325
0.169873
0.228882
0.268817
0.164509
0.139475
0.327826
0.341535
0.284910
0.319481
0.207424
0.310540
0.049472
0.172853
0.398755
0.153780
0.350475
0.132918
0.126958
0.329614
0.359416
0.346899
0.492930
0.209808
0.350475
0.290871
0.251532
0.452995
0.337958
0.363588
0.405908
0.340939
0.492930
0.478625
0.355840
0.485778
0.472665
0.539422
0.672936
0.640750
0.693798
0.782609
0.879765
0.760555
0.993609
1.807809
11.909008
32.081604
86.424947
157.936811
297.975540
418.815017
566.168427
644.735694
675.805807
631.672740
507.046580
388.295650
242.412686
147.850513
68.086982
34.760833
14.788508
10.207891
10.230541
11.765957
15.528798
21.169782
33.012629
44.583678
65.794587
80.154538
96.712708
106.229782
106.981993
103.167892
88.605881
75.649619
59.882998
48.207641
36.193728
30.868649
26.834607
25.654435
25.258660
24.277568
24.971962
25.186539
25.323629
25.532842
25.442839
25.155544
25.066733
25.115609
25.137663
25.221705
25.223494
##ZVALUE=330
0.126958
0.051856
0.224710
0.225902
0.200868
0.277758
0.270605
0.250936
0.286698
0.137687
0.187755
0.170469
0.304580
0.186563
0.252724
0.266433
0.314713
0.369549
0.293851
0.292659
0.296831
0.320673
0.200868
0.209808
0.403523
0.285506
0.392795
0.442863
0.418425
0.339746
0.286698
0.507832
0.590682
0.469685
0.395775
0.397563
0.457764
0.567436
0.519753
0.602603
0.601411
0.602603
0.560880
0.639558
0.960827
0.889897
1.343489
5.082488
16.888976
56.420565
111.624599
226.375461
336.622596
495.178699
594.868660
659.946799
645.660758
549.942851
445.562005
291.972756
191.008449
94.288588
49.714446
20.999908
11.781454
9.798408
10.684729
12.483597
15.323758
23.086667
31.146407
45.995712
59.812665
80.298781
92.087984
101.466775
103.755593
96.848607
87.649822
71.416497
59.289932
45.426488
38.333535
32.068491
28.228760
26.508570
24.952888
24.843812
24.683475
25.294423
25.033951
24.286509
24.375916
24.536848
24.373531
24.884939
##ZVALUE=335
0.124574
0.207424
0.125766
0.060797
0.248551
0.246763
0.314713
0.109673
0.173450
0.192523
0.222921
0.259876
0.273585
0.251532
0.337958
0.237823
0.179410
0.163913
0.335574
0.206828
0.234842
0.210404
0.032783
0.201464
0.211596
0.346899
0.502467
0.396967
0.382662
0.205636
0.367761
0.205636
0.281930
0.346899
0.520945
0.471473
0.353456
0.428557
0.502467
0.574589
0.530481
0.424981
0.565648
0.520945
0.462532
0.721812
0.799894
0.882745
0.871420
2.288818
8.539557
34.460425
73.754787
167.979002
271.938443
430.749655
539.488792
633.824468
655.168891
588.464737
492.907763
340.955853
234.983563
126.899481
69.968700
29.032826
14.683604
10.433793
10.409951
11.693835
13.013482
16.690493
22.294521
32.630563
43.864846
61.423779
74.033737
87.776780
95.779896
98.267794
93.749762
82.075596
71.612597
57.257414
48.055649
37.947893
32.885671
27.772784
25.723577
24.715662
24.133921
23.663640
23.821592
23.779869
23.414493
23.687482
##ZVALUE=340
0.167489
0.107884
0.221729
0.246763
0.196695
0.299811
0.243783
0.162721
0.276566
0.325441
0.222921
0.185966
0.201464
0.177622
0.254512
0.261664
0.222921
0.267625
0.277758
0.291467
0.225902
0.150800
0.243783
0.164509
0.342727
0.307560
0.277758
0.271797
0.169873
0.223517
0.309944
0.137687
0.271797
0.398755
0.421405
0.386834
0.400543
0.440478
0.429749
0.456572
0.341535
0.370741
0.348687
0.393987
0.483990
0.656843
0.569820
0.687838
0.683665
0.800490
0.761747
1.237988
3.820658
20.690560
51.169991
127.000809
219.101906
363.134742
467.861891
574.088693
613.750815
586.900711
515.394807
388.187766
277.317762
150.416493
87.210536
38.914680
19.337535
11.234879
10.547638
11.250973
12.065768
14.553666
17.323494
23.396611
30.547976
44.035912
56.775808
74.214935
84.465742
92.048645
92.076659
88.925958
80.936551
68.205595
58.785677
45.972466
38.213730
31.015873
26.814938
24.583936
23.497939
22.398829
22.455454
22.714734
##ZVALUE=345
0.220537
0.273585
0.132918
0.023842
0.199676
0.134706
0.041723
0.071526
-0.025630
0.161529
0.158548
0.061989
-0.076890
0.096560
0.233650
0.093579
0.169873
0.091791
0.148416
0.317693
0.165701
0.146627
0.213981
0.229478
0.210404
0.048876
0.258684
0.046492
0.195503
0.261664
0.202656
0.243783
0.245571
0.255704
0.308752
0.215769
0.449419
0.293851
0.370741
0.253916
0.224710
0.451803
0.272989
0.358820
0.387430
0.334978
0.325441
0.448823
0.498891
0.466704
0.512600
0.558496
0.703931
0.725985
1.557469
11.339784
30.735731
84.425807
152.171850
279.462934
385.267735
515.994430
576.321483
589.656830
546.133518
426.600575
320.691466
195.078850
114.811659
49.524903
25.649667
12.819767
10.725856
11.008978
11.496544
12.620687
13.607740
17.131567
21.767616
31.690598
41.258931
55.928826
66.580772
77.157617
83.434582
86.261630
83.931684
75.946450
67.304969
55.578947
46.197772
36.021471
30.323863
25.206804
23.246408
22.299886
##ZVALUE=350
0.244975
0.262856
0.079870
0.158548
0.186563
0.134706
0.044703
0.237823
0.211596
0.131726
0.269413
0.145435
0.086427
0.152588
0.015497
0.265837
0.109673
0.145435
0.208616
0.210404
0.242591
0.117421
0.233650
0.259876
0.303984
0.291467
0.232458
0.216961
0.069737
0.357628
0.384450
0.109673
0.310540
0.219941
0.091791
0.197887
0.340939
0.363588
0.264645
0.321865
0.294447
0.348687
0.296831
0.359416
0.427961
0.432730
0.296831
0.288486
0.528693
0.256896
0.459552
0.494719
0.469685
0.714660
0.648499
0.707507
1.298785
5.464554
17.595887
56.780577
108.518600
218.900442
319.160819
446.596742
522.401929
568.534732
547.528863
450.716615
351.537466
221.948624
138.251781
65.472722
33.778548
14.296770
10.536909
10.570884
11.205673
11.541843
12.387633
13.912916
16.181469
21.891594
27.677417
38.167834
47.563910
60.737729
68.910718
76.749921
79.330802
77.353716
71.963668
61.660409
53.330660
42.153597
35.460591
28.793812
##ZVALUE=355
0.196695
0.148416
0.204444
0.229478
0.203848
0.183582
0.182986
0.101924
0.082850
0.113845
0.229478
0.169873
0.194907
0.061989
-0.008941
0.197887
0.074506
0.139475
0.320673
0.138879
0.158548
0.207424
0.230670
0.194907
0.210404
0.383854
0.176430
0.191927
0.154972
0.156760
0.131726
0.117421
0.458956
0.208616
0.123978
0.170469
0.407696
0.305772
0.197887
0.375509
0.339746
0.288486
0.298619
0.309944
0.202656
0.262856
0.464916
0.442863
0.510812
0.354648
0.509620
0.539422
0.439882
0.602603
0.509620
0.611544
0.719428
0.708699
0.927448
1.870990
10.941625
30.458570
81.989765
146.131516
269.643664
369.486809
482.110977
537.552834
538.294911
481.646657
362.585783
270.282626
155.997872
89.015961
37.710667
19.797683
10.720491
9.785891
10.125637
10.886788
11.175871
11.993647
13.360977
15.104413
19.468665
24.238825
33.561587
41.460991
53.392649
61.410666
69.460869
71.915984
70.305467
65.704584
57.341456
49.930811
##ZVALUE=360
0.052452
0.143647
0.085831
0.198483
0.232458
0.070930
0.161529
0.067949
0.010729
0.150800
0.224710
0.155568
0.222921
0.136495
0.078678
0.197887
0.167489
0.258684
0.202656
0.238419
0.282526
0.196695
0.244975
0.214577
0.143647
0.235438
0.114441
0.111461
0.233650
0.364780
0.232458
0.243783
0.249743
0.210404
0.218749
0.107884
0.157952
0.230670
0.279546
0.412464
0.420809
0.360608
0.276566
0.384450
0.292659
0.331998
0.474453
0.416636
0.502467
0.362992
0.422597
0.496507
0.459552
0.406504
0.488758
0.445843
0.476837
0.556707
0.632405
0.752807
0.796914
1.398921
4.049540
18.952489
46.649575
116.050839
194.273591
314.342976
413.683653
506.700873
531.109571
498.155951
426.509976
299.443603
205.975771
105.277896
57.285428
24.038553
13.099909
9.302497
9.318590
9.859800
9.977818
10.606647
10.975599
12.174845
13.644695
16.786456
20.305514
27.563572
34.980774
45.928955
53.586960
61.819553
64.666867
65.220594
##ZVALUE=365
0.120997
0.168681
-0.013709
0.123978
0.231862
0.155568
0.042915
0.174642
0.185966
0.210404
0.275970
0.169873
0.131726
0.218749
0.179410
0.079870
0.123978
0.065565
0.270605
0.095963
0.177622
0.264645
0.244975
0.272989
0.213981
0.260472
0.302792
0.176430
0.309944
0.297427
0.191927
0.154972
0.146627
0.242591
0.400543
0.182986
0.196695
0.273585
0.268817
0.327826
0.270605
0.258684
0.167489
0.275970
0.341535
0.291467
0.285506
0.369549
0.415444
0.269413
0.426769
0.399947
0.519753
0.250936
0.438690
0.354648
0.327826
0.416636
0.576973
0.466704
0.671744
0.632405
0.732541
0.928640
1.873970
10.647774
29.071569
76.990724
142.701864
261.093974
354.702473
460.895896
505.506992
499.101877
441.774726
340.454578
247.405767
136.249661
77.026486
31.396747
15.297532
9.124875
8.593798
8.880496
8.931756
9.263754
9.633899
10.186434
10.539889
12.096763
13.926625
18.408895
23.414493
31.241775
40.927529
46.798587
##ZVALUE=370
0.241995
0.165701
0.226498
0.155568
0.185966
0.163913
0.220537
0.155568
0.216961
0.195503
0.163913
0.033975
0.121593
0.251532
0.119805
0.139475
0.044703
0.036955
0.109673
0.246763
0.126958
0.101924
0.139475
0.181794
0.131726
0.140667
0.337958
0.216961
0.256896
0.127554
0.127554
0.208616
0.187755
0.397563
0.120997
0.000000
0.253916
0.136495
0.362992
0.280738
0.179410
0.335574
0.257492
0.300407
0.093579
0.296831
0.474453
0.349879
0.214577
0.172853
0.291467
0.331998
0.268817
0.262856
0.253916
0.322461
0.376701
0.343919
0.309944
0.547767
0.550747
0.613928
0.571609
0.570416
0.541806
0.758767
1.230836
5.380511
17.781854
59.431791
110.232830
208.174586
300.747752
420.228839
479.884744
498.038530
460.454822
367.280841
275.186896
158.541799
92.463493
39.510727
21.059513
10.399818
8.200407
7.929802
8.460879
8.446574
8.556843
8.687973
9.414554
9.882450
10.390878
12.940764
15.915632
21.391511
##ZVALUE=375
0.117421
0.108480
0.035763
0.048876
0.146627
0.094771
0.084639
0.233650
0.154972
0.094771
0.315905
0.082850
0.151992
0.160933
0.176430
0.090599
0.250936
0.223517
0.062585
0.210404
0.080466
0.241995
0.102520
0.231862
0.174642
0.161529
0.221729
0.167489
0.258684
0.142455
0.194907
0.253916
0.122786
0.220537
0.061989
0.287890
0.318885
0.204444
0.202656
0.184774
0.194907
0.270605
0.218749
0.201464
0.079870
0.183582
0.253916
0.118613
0.305772
0.388622
0.320673
0.351667
0.270605
0.291467
0.427961
0.297427
0.454783
0.264645
0.423789
0.452995
0.477433
0.460744
0.395775
0.490546
0.494719
0.566840
0.620484
0.688434
0.745654
2.228618
12.306571
32.121539
82.687736
147.475600
260.765553
354.179740
456.302762
493.549705
476.029515
415.129662
304.944515
217.265487
121.405721
70.558786
30.261874
15.370846
8.017421
7.484555
7.210970
7.517934
7.760525
8.043647
8.080602
8.133650
9.122491
9.605885
##ZVALUE=380
0.100732
0.097752
0.061989
0.130534
0.183582
0.098944
0.111461
0.102520
0.097752
0.056624
0.202656
0.160933
0.152588
0.151992
0.085831
0.057817
0.193715
0.102520
0.041723
0.012517
0.050664
0.176430
0.077486
0.005960
0.057817
0.055432
0.004768
0.216961
0.118613
0.298619
0.190735
0.212789
0.151992
0.313520
0.220537
0.256896
0.165701
0.137687
0.311732
0.215769
0.186563
0.136495
0.119805
0.325441
0.187755
0.187755
0.307560
0.380874
0.163913
0.235438
0.103712
0.413656
0.275970
0.238419
0.198483
0.139475
0.323653
0.228882
0.258684
0.307560
0.413656
0.419617
0.322461
0.323653
0.371933
0.336766
0.543594
0.527501
0.631809
0.576973
0.745654
1.348853
6.696582
20.806789
63.098669
116.241574
217.048526
310.457945
416.541696
466.817617
470.284820
425.319672
336.534977
256.736875
153.671503
93.546510
41.592717
21.083951
9.195805
7.002950
6.758571
6.873608
6.733537
7.252693
7.263422
7.461905
##ZVALUE=385
0.065565
0.032783
0.186563
0.124574
0.051856
0.103712
0.227690
0.172853
0.081658
-0.008941
0.162721
0.109673
0.254512
0.128746
0.036955
0.042915
0.136495
0.125766
0.040531
0.083447
0.096560
0.227690
0.239611
0.061989
0.136495
0.066757
0.007749
0.107884
0.168681
0.063777
0.173450
0.215769
0.068545
0.194907
0.233650
0.119805
0.188947
0.146627
0.154972
0.145435
0.198483
0.264645
0.308752
0.241995
0.272989
0.328422
0.227690
0.175834
0.330806
0.170469
0.028610
0.237823
0.171661
0.311732
0.302792
0.316501
0.285506
0.138879
0.214577
0.280738
0.110865
0.158548
0.407696
0.297427
0.366569
0.434518
0.365973
0.491738
0.423789
0.585914
0.481606
0.604987
0.602603
0.855923
2.333522
13.417006
35.439730
88.766813
154.718757
269.141793
354.314446
440.672636
465.910435
438.695550
383.245945
283.245444
203.138590
113.604665
66.331625
29.657483
14.502406
6.845593
5.877614
6.208420
6.178617
6.242990
##ZVALUE=390
0.070930
0.116825
0.074506
0.129938
0.222921
0.266433
0.098944
0.009537
-0.014901
0.109673
0.150800
0.009537
0.005960
0.078678
0.198483
0.239611
-0.002980
0.001788
0.184774
0.147820
0.307560
65.523982
0.217557
0.191927
0.290871
0.065565
0.203848
-0.038743
0.181794
0.066757
0.201464
0.276566
0.220537
0.125766
0.295639
0.192523
0.224710
0.294447
0.211596
0.071526
0.165701
0.205636
0.130534
0.261664
0.272989
0.330806
0.227690
0.224710
0.238419
0.181794
0.251532
0.278950
0.177622
0.246763
0.162721
0.293851
0.255704
0.242591
0.242591
0.411868
0.248551
0.307560
0.345707
0.346899
0.215769
0.257492
0.374913
0.555515
0.495911
0.415444
0.561476
0.463724
0.573993
0.549555
0.655651
0.697970
1.529455
5.717874
25.599599
59.659481
138.726830
217.735767
325.789452
401.622653
463.060737
471.429825
423.533916
355.628729
245.907903
167.672634
87.976456
45.937896
18.488765
9.068847
5.813837
5.437732
##ZVALUE=395
0.097752
0.120997
0.077486
-0.078678
0.205636
0.102520
0.085831
0.069737
0.143647
0.123978
0.072718
0.149608
0.052452
0.063777
0.068545
0.141859
0.199676
0.032783
0.144839
0.107884
0.116825
0.072718
0.140667
0.152588
0.138879
0.140667
0.154972
0.208616
0.288486
0.219941
0.126958
0.150800
0.246763
0.289679
0.134706
0.136495
0.175834
0.190735
0.287890
0.271797
0.189543
0.092983
0.158548
0.288486
0.180602
0.224710
0.109673
0.254512
0.322461
0.392795
0.197887
0.185966
0.220537
0.390410
0.266433
0.165701
0.289679
0.241995
0.417829
0.150800
0.272989
0.253916
0.317693
0.444651
0.403523
0.284910
0.588894
0.309944
0.441670
0.447631
0.525713
0.637770
0.557899
0.546575
0.480413
0.705719
0.555515
0.597835
0.836849
2.785921
16.913414
41.031837
98.242760
164.210796
278.052688
366.057754
461.450815
492.065549
473.642945
410.861969
305.569768
215.953588
116.497874
64.124465
25.642514
12.912750
##ZVALUE=400
0.034571
0.114441
0.044703
0.218749
0.121593
0.170469
0.384450
0.127554
0.199676
0.273585
0.192523
0.185966
0.044703
0.093579
0.071526
-0.011921
-0.022650
0.024438
0.168681
-0.017881
0.124574
0.113845
0.010729
0.098944
0.084639
0.155568
0.097752
-0.009537
0.254512
0.102520
0.039935
0.200868
0.169873
0.159740
0.167489
0.157952
0.181794
0.205636
0.121593
0.228882
0.110865
0.366569
0.231862
0.191927
0.188947
0.300407
0.230670
0.085831
0.071526
0.197887
0.248551
0.287890
0.143647
0.140667
0.136495
0.112653
0.198483
-0.021458
0.185966
0.266433
0.246763
0.301600
0.133514
0.257492
0.320673
0.324845
0.336766
0.305772
0.282526
0.320673
0.267625
0.427961
0.318885
0.517964
0.407696
0.481606
0.446439
0.402927
0.505447
0.480413
0.700951
2.136827
7.283688
26.924610
58.381557
128.565431
205.521584
316.397548
388.685465
450.186729
455.288887
401.189923
330.227017
220.181942
146.971941
75.327754
##END
