##TITLE=QP00651
##FORMAT=SPECTACLE-ASCII V-1.2
##DATA TYPE=ULTRAVIOLET SPECTRUM
##SECOND TYPE=ULTRAVIOLET SPECTRUM
##DATE=01/21/18
##TIME=16:38:19
##SPECTROMETER/DATA SYSTEM=SPECTACLE
##XUNITS=NM EM
##YUNITS=ENERGY
##YFACTOR=1
##FIRSTX=220
##LASTX=410
##NPOINTS=96
##3DDATA=Equidistant
##ZUNITS=NM EX
##FIRSTZ=210
##LASTZ=400
##ZPOINTS=39
##XYDATA=(Y..Y)
##ZVALUE=210
1.495481
1.802444
1.457930
1.722574
1.623631
1.481771
2.366900
2.219677
1.920462
2.210736
2.216697
1.943707
2.116561
1.821518
2.224445
1.704693
2.263784
2.727509
2.481937
3.027916
2.641678
2.799630
3.323555
3.197789
2.900958
3.230572
3.433824
3.337860
4.436970
3.641844
3.743768
4.315972
4.764795
4.295707
4.111528
3.956556
4.970431
4.750490
4.819632
4.799962
5.091429
5.054474
4.622936
4.666448
5.203485
5.870461
5.899668
5.285740
6.017685
6.383657
6.016493
5.605817
5.608797
6.309748
5.956888
4.970431
6.991625
5.677938
6.571412
6.237626
7.192492
6.375909
6.818771
7.001758
7.344484
7.001758
7.650852
9.007454
9.864569
12.234449
14.995933
15.504956
19.045472
19.682646
22.951961
23.865700
24.748445
24.283528
23.560524
20.561814
19.654632
19.080639
15.459657
14.060736
12.106895
10.268688
8.678436
8.005500
7.078648
6.939769
6.217957
6.746650
6.415844
8.003712
7.144809
7.151961
##ZVALUE=215
5.827546
4.779696
4.756451
3.461838
4.784465
3.980994
3.892779
4.384518
4.270673
5.196929
4.249811
3.836751
3.297925
3.466606
2.719760
2.446771
1.769662
2.112985
2.479553
2.991557
2.998710
3.664494
3.319979
3.735423
3.452897
3.856421
3.804564
4.480481
3.576875
4.079938
4.897714
4.613996
4.742742
3.849864
4.571676
4.905462
4.767776
4.474521
4.898906
4.652739
4.881620
5.349517
5.051494
5.310774
4.512668
5.469918
5.756617
5.881786
6.247759
5.996823
5.985498
5.903840
6.153584
5.804896
5.953908
6.572604
5.969405
5.891919
6.867647
6.546974
6.925464
7.425547
6.684661
6.975532
6.812811
7.107854
8.207560
9.108782
10.100603
12.035966
13.074875
15.465617
18.203855
19.840598
21.716952
21.372437
21.641850
20.807981
21.843910
21.266937
18.656850
16.580820
15.700459
12.038946
11.242628
10.885596
9.056926
7.925630
7.902980
7.268786
7.224679
6.392598
6.646514
6.237626
6.204844
6.422997
##ZVALUE=220
20.740628
19.487739
21.491647
24.025440
19.899607
16.046762
14.399886
11.696815
9.544492
8.762479
9.857416
10.107756
10.594726
8.809566
7.299781
6.921887
5.070567
4.037619
3.715754
3.458858
3.217459
3.384948
3.937483
4.064441
3.665686
4.118681
4.101992
3.971457
4.612803
4.114509
4.751682
4.771948
4.775524
4.407763
5.063415
4.475713
5.015731
5.773902
4.950762
4.805923
5.174875
5.453825
4.984736
5.385876
6.172657
5.920529
6.236434
5.368590
6.334782
7.094741
6.238818
6.462932
7.093549
6.757975
7.352829
7.104874
7.167459
6.764531
6.633997
6.996989
7.202625
7.563829
7.437468
7.418990
6.927848
7.557869
8.201599
8.958578
9.721518
12.247562
13.241768
16.220808
19.570589
19.554496
21.895766
22.523999
20.395517
21.586418
19.704700
18.531680
18.263459
15.907884
13.717413
11.911988
10.837913
9.975433
8.205771
7.992983
8.214712
8.152723
8.491874
7.022619
7.711649
7.429719
7.630587
6.731749
##ZVALUE=225
35.725832
36.528707
55.037737
63.831806
72.865486
74.339509
67.966580
59.976578
40.476918
33.051968
23.609996
21.810532
23.177862
24.342537
26.066899
23.554564
19.529462
13.801455
12.009740
8.731484
6.301999
4.476905
4.666448
4.043579
4.589558
4.700422
4.547834
4.789829
4.991889
4.487634
5.749464
4.854798
5.854964
5.848408
5.287528
5.459785
6.377697
6.561875
6.084442
4.917979
7.182956
5.918741
6.233454
6.014705
6.716847
6.911755
6.340742
5.807877
7.494688
6.936789
6.764531
6.994605
7.397532
7.530451
7.644892
7.056594
8.685589
7.588863
8.169413
8.034706
8.251667
8.238554
8.984804
8.107424
8.888841
9.613633
9.869933
11.423826
12.155771
12.810826
13.587475
17.727613
17.728806
19.665956
21.198988
21.554828
21.850467
20.572543
21.041632
19.049644
16.431808
15.344620
15.747547
15.078783
12.448430
10.936856
10.904670
10.720491
9.759665
10.173917
9.102821
9.932518
8.618832
8.955598
9.446740
8.450747
##ZVALUE=230
36.022663
37.380457
66.079497
109.182596
152.447820
190.283656
211.970806
209.549665
191.476941
166.500807
113.846660
81.836581
52.859783
46.221614
42.646527
49.139857
49.894452
49.623847
43.524504
36.000609
29.086471
18.261671
12.277961
8.380413
6.212592
5.986691
5.401969
7.065535
5.992651
7.800460
6.779432
6.414652
7.166862
7.346869
6.536841
7.185936
8.166432
8.035898
7.349849
8.719563
8.074641
7.699728
7.054806
7.944703
8.701682
9.109974
9.134412
8.479953
8.953810
9.085536
8.701682
10.460615
8.251667
8.836985
8.629560
9.566545
9.627938
10.269880
9.063482
10.185838
10.099411
11.462569
12.091994
11.097789
11.732578
12.462735
12.394786
14.177561
15.162826
16.421676
18.758774
19.914508
23.533702
25.096536
27.047992
26.103854
27.529597
27.989745
25.147796
27.115941
24.773479
23.172498
18.662810
17.870665
16.161799
14.775991
15.106797
12.517571
14.095902
13.039708
12.349486
12.823939
14.231801
12.760758
11.977553
11.658669
##ZVALUE=235
17.751455
20.319819
53.573847
96.916556
169.006586
240.830779
335.856676
391.323566
450.550914
446.009636
386.743546
319.122672
245.973468
152.987838
113.687515
77.348948
74.466467
80.551505
86.100698
86.852908
80.809593
70.001483
53.336620
41.458607
26.368499
17.533898
12.215972
9.900928
8.807778
8.075833
8.378625
8.337498
8.182526
7.875562
8.665919
9.248853
9.443760
8.541942
9.040833
8.695722
10.036826
8.579493
9.382963
9.598732
8.340478
9.146929
10.810494
9.263754
9.042621
10.170937
10.709763
9.048581
9.943843
11.065602
11.054873
11.413693
11.167526
12.570620
11.645555
11.548996
12.916923
12.688637
13.018847
13.758540
12.864470
13.868809
15.276670
16.461611
19.053817
21.289587
22.263527
24.694800
27.084947
25.749803
27.950406
31.183958
29.637814
30.093789
30.342937
25.604963
24.099946
24.856925
22.373796
19.070506
19.731522
19.141436
16.943812
19.009709
17.274618
19.523501
17.215610
17.699599
15.393496
17.229915
17.110705
16.190410
##ZVALUE=240
2.122521
2.217889
7.388592
18.875599
54.196715
100.827813
199.470520
305.353999
457.467437
548.400879
633.343458
647.081733
599.767566
478.402972
361.299515
236.700773
171.787739
114.932656
100.594759
106.602907
113.037825
120.915771
115.424991
104.667544
84.605813
65.247416
47.802925
34.402609
20.638704
15.404820
11.465549
8.339882
7.457733
8.739829
8.712411
8.304715
8.164644
8.270741
8.028746
7.963777
7.931590
8.031726
7.750988
7.455945
8.440614
7.994771
8.435845
7.987618
8.785725
8.669496
9.223819
9.161830
9.737611
8.889437
9.452701
9.307861
9.431839
11.940598
11.504889
10.773540
12.721419
12.828708
11.731982
14.470816
13.543963
13.681650
14.447570
17.746687
17.786622
18.974543
19.879937
22.469759
24.912953
25.822520
28.507710
27.310848
27.429461
27.243495
26.888847
26.139617
25.031567
22.746921
22.785664
21.075606
21.097660
19.801855
19.834638
21.694899
19.364953
20.280480
19.355416
20.798445
19.160509
19.543767
19.409657
18.971562
##ZVALUE=245
1.428723
1.662970
1.262426
1.617670
6.470680
22.064447
65.427423
133.875608
267.040730
389.684439
565.336943
687.958002
757.302642
794.673562
748.468637
615.548491
510.885715
346.423984
241.856575
146.702528
113.325715
107.041001
115.671754
129.631758
135.557652
134.263635
115.094781
98.658800
71.123838
55.843592
38.112998
24.033785
17.216802
10.729432
9.085536
8.879900
9.439588
7.871985
7.371902
8.149743
7.231832
7.852912
7.911921
7.269979
8.589625
6.874800
7.923841
7.218719
8.033514
8.477569
8.424520
8.243918
8.020997
8.891821
8.304715
8.511543
8.722544
9.553432
8.912683
8.925796
9.498596
9.821653
10.586977
11.503696
10.746717
12.528896
12.803674
15.564561
15.488863
17.079711
19.011497
20.070672
22.246838
25.108457
22.878647
24.992824
26.226640
25.242567
25.495887
23.310781
22.394657
21.280646
20.782948
22.816658
21.324754
20.454526
17.759800
19.857883
19.608736
19.161701
19.364953
18.863678
20.028949
19.071698
20.196438
20.286441
##ZVALUE=250
1.077652
1.090765
1.210570
1.272559
1.159906
1.372695
2.253652
8.381605
41.654706
97.180605
220.743418
356.611609
508.108735
701.388717
808.694959
884.963870
879.126787
771.913528
643.381476
443.369746
297.079682
194.709897
120.076537
100.564957
109.049678
124.989748
139.522552
144.546628
143.121481
126.018524
105.825663
82.954764
62.339902
36.708713
25.747418
13.972521
10.385513
7.348657
7.200837
6.603599
7.612705
6.127954
6.766915
6.041527
6.318688
6.849766
6.517768
6.520748
6.362796
6.353855
5.969405
6.608963
7.136464
6.681681
6.202459
7.266998
6.897449
8.261800
7.140636
7.438660
8.376837
8.317828
8.470416
9.597540
9.445548
10.196567
10.844469
12.307763
13.280511
15.730858
15.597939
17.009974
20.315647
21.394491
21.295547
22.780895
20.741820
22.335649
21.812916
21.846890
20.789504
20.346642
18.937588
19.022822
19.360781
18.115640
18.262863
18.655658
20.146966
18.597841
18.390417
17.056465
18.690825
17.941594
18.100739
17.936826
##ZVALUE=255
0.837445
1.083612
1.065731
1.319647
1.249909
1.456738
1.422763
1.674891
1.648664
4.833937
25.422573
61.985850
130.284429
276.654959
432.437658
660.360456
820.329785
970.469713
1015.943885
949.836969
816.484690
638.628006
401.315689
254.344940
138.955712
100.863576
96.590519
105.918646
131.899714
145.496726
153.075457
145.713687
135.971904
107.508898
82.521439
55.839419
38.886666
22.779703
14.730692
8.693933
7.361770
6.904602
6.102920
6.308556
6.237626
6.481409
5.986691
6.195903
6.407499
6.273985
5.809665
6.240606
6.660819
6.164908
6.690621
5.727410
6.218553
6.609559
7.763505
7.480979
7.260442
7.378459
8.396506
8.841753
8.576512
9.375811
10.007620
11.094809
11.897683
13.097525
14.096498
15.548468
16.920567
18.362999
20.365715
19.405484
20.097494
20.739436
19.454956
19.235611
17.576814
17.571449
18.840432
16.638637
17.131567
17.748475
16.632676
17.497540
17.963648
17.223954
17.699599
17.100573
16.704798
17.557740
17.212629
16.613603
##ZVALUE=260
0.954866
1.010895
1.034737
1.060963
0.950694
1.339912
1.286864
1.493692
1.509786
1.326799
1.761913
3.070831
11.644959
48.450828
108.018517
259.757638
420.167446
692.008734
905.140638
1015.943885
1015.943885
1015.943885
1015.943885
834.845901
549.791455
370.325446
209.511518
133.283734
87.544918
88.417530
107.910633
130.273700
147.650838
156.963468
148.927569
135.438442
113.036633
82.343817
60.208440
36.942959
24.019480
13.975501
8.936524
7.286668
6.450415
6.308556
6.056428
6.036758
6.341934
6.119609
6.149411
6.424785
6.145835
6.385446
6.014705
6.619692
6.209612
6.343722
6.811619
6.279945
6.603599
7.676482
7.420778
7.744431
7.967949
7.791519
8.910894
9.188652
10.219812
11.257529
12.912750
14.443994
16.644597
15.822649
17.179847
17.512441
17.979741
18.119812
16.841888
17.200708
17.049909
15.605688
16.465783
16.521811
16.220808
16.253591
15.137792
16.035438
16.558766
17.286539
15.936494
15.596747
15.890598
17.105937
17.118454
16.832948
##ZVALUE=265
0.858903
0.883937
1.066923
1.097918
1.146793
0.989437
1.091957
1.308918
1.269579
1.240969
1.379848
1.453757
1.719594
1.987815
4.950762
26.821494
74.306726
209.247470
380.240679
709.456801
981.084704
1015.943885
1015.943885
1015.943885
1015.943885
1012.050509
748.329759
521.304011
294.412971
174.582005
106.202960
74.452758
85.180998
113.222003
136.229992
152.869821
159.449577
150.499940
134.895444
107.283592
84.960461
55.222511
38.804412
22.449493
13.940930
8.626580
7.068515
6.388426
5.958676
6.384850
5.760789
6.667972
6.371737
6.674528
6.595850
5.965829
6.496906
6.287694
6.939769
6.290674
6.677508
6.787777
7.145405
7.739663
7.833838
7.513762
8.643866
8.746982
9.896755
11.427999
12.202859
13.289452
14.461875
15.463829
15.810728
16.401410
16.387701
16.425848
16.797781
15.908480
15.833974
15.511513
15.008450
15.293956
14.537573
13.873577
14.635921
15.126467
15.358925
15.309453
14.309883
14.780760
15.255809
16.042590
15.033484
15.069842
##ZVALUE=270
0.767708
0.819564
0.772476
0.585914
0.878572
0.969768
0.880957
1.110435
0.963807
0.921488
1.261830
1.232624
1.357794
1.274943
1.577735
2.071857
3.223419
10.026693
43.255687
110.963583
305.298567
537.274480
944.156647
1015.943885
1015.943885
1015.943885
1015.943885
1015.943885
972.912908
718.919635
481.807590
248.063803
139.776468
70.479512
65.827966
90.458989
111.247897
140.534639
153.355598
162.932873
154.155493
135.794878
114.899874
82.146525
59.764981
36.294460
23.904443
14.303923
10.064840
7.814765
6.971955
6.684661
7.108450
6.797910
6.839633
6.969571
6.668568
7.307529
7.216930
6.872416
7.398725
7.526875
7.811785
8.016825
8.077621
8.171797
8.808970
9.516478
9.852648
11.191964
11.703968
13.666749
13.961792
14.810562
15.173554
16.199946
15.623569
16.233921
15.495420
15.178919
14.865994
14.773607
13.856888
13.457537
13.634562
13.301969
13.972521
13.240576
13.500452
14.103651
14.452934
14.643669
14.922619
14.132857
14.657974
14.996529
##ZVALUE=275
0.711679
0.761747
0.791550
0.769496
0.827909
0.811815
0.831485
0.822544
0.916719
0.853539
1.240969
1.057982
1.229644
1.266599
1.463890
1.765490
1.654625
1.793504
2.079606
5.633831
21.705627
61.064959
188.234448
369.488001
740.479827
1004.385948
1015.943885
1015.943885
1015.943885
1015.943885
1015.943885
968.003869
669.255853
338.013768
188.758969
80.669522
54.099560
62.418580
81.909895
112.674832
132.133961
150.883794
156.857967
150.001645
134.665966
108.283758
86.472631
58.096647
41.827559
23.584962
16.419888
10.382533
8.355975
7.249713
7.367730
7.329583
7.064939
6.995797
6.436706
7.761717
7.382631
7.681847
7.525682
7.568598
7.849932
8.882880
9.368658
9.233952
9.197593
9.993911
11.558533
11.677742
12.730956
13.725758
13.912916
14.844537
14.511943
14.786720
14.487505
14.381409
13.710856
13.335943
13.824701
13.063550
13.066530
12.889504
12.324452
13.072491
13.379455
13.247728
13.123751
12.434721
13.232827
12.977719
13.456941
12.861490
##ZVALUE=280
0.619888
0.530481
0.619888
0.768900
0.802875
0.694990
0.771880
0.826716
0.864863
0.758767
0.850558
0.903606
0.968575
1.104474
1.033545
1.146793
1.149774
1.249909
1.677871
1.639724
1.865625
2.541542
13.329983
44.942498
144.749880
273.084641
537.111759
813.070536
1015.948653
1015.948653
1015.948653
1015.948653
1015.948653
1015.948653
824.043751
459.230542
265.261531
116.339922
60.597658
46.283603
56.236982
85.025430
106.924772
133.958459
149.282813
154.260993
150.384903
131.358504
111.716986
81.355572
61.551929
37.528872
25.044680
15.529990
10.699630
7.928610
7.374883
7.257462
7.131696
7.080436
7.357597
7.198453
7.919669
7.627606
8.033514
8.140802
8.785725
8.321404
9.532571
9.918809
10.867715
11.393428
11.909604
12.821555
12.872815
13.375878
12.913942
12.599826
12.494922
12.583733
12.989640
11.983514
11.762977
12.189746
11.760592
12.396574
12.608767
12.807846
11.837482
12.211800
12.133718
12.202859
12.562871
12.355447
12.368560
12.297630
##ZVALUE=285
0.628829
0.564456
0.621676
0.725985
0.612736
0.729561
0.755787
0.569820
0.587702
0.619888
0.869632
0.988841
1.024604
1.086593
0.912547
1.122952
0.966787
1.155734
1.238585
1.403689
1.262426
1.476407
1.768470
2.371669
7.569790
25.299788
84.447861
179.162621
389.407873
607.703924
893.119574
1015.946865
1015.946865
1015.946865
1015.946865
1015.946865
995.313525
632.513762
394.740701
181.605816
91.168880
40.440559
38.083792
55.673718
77.432990
106.167793
124.153495
141.940713
147.994757
143.108964
131.858587
107.809901
86.957812
59.034824
41.328669
24.041533
15.770793
9.978414
8.049607
6.926656
7.210970
6.930828
7.496476
7.550716
7.225871
7.396936
8.138418
8.498430
8.888841
9.850860
10.335445
10.476708
11.740923
11.723638
11.822581
12.372732
12.496710
12.413859
12.037754
11.683702
11.868477
12.445450
11.769533
11.749864
11.851788
11.726618
12.374520
11.723638
11.671782
11.912584
11.482835
11.970997
11.682510
11.526942
11.700988
11.678934
##ZVALUE=290
0.481606
0.634789
0.449419
0.652671
0.422597
0.618696
0.788569
0.472665
0.638962
0.488758
0.576973
0.658631
0.681877
0.714660
0.672936
0.882745
0.802875
0.926852
0.837445
0.994802
0.965595
1.083612
1.269579
1.560450
1.758933
1.879930
2.903938
10.576844
54.945946
130.617619
249.843001
521.155596
809.033513
1015.892029
1015.892029
1015.892029
1015.892029
1015.892029
1015.891433
728.755593
475.935936
233.905911
119.084716
45.072436
28.793812
35.871863
49.150586
70.979595
93.072653
120.700002
135.925412
143.659711
142.044425
126.313567
108.541846
80.009699
58.147907
37.839413
25.780797
15.385747
11.114478
8.000731
7.468462
7.375479
7.168651
7.626414
7.868409
8.258820
8.710623
9.589791
9.770989
10.079741
11.147857
11.284947
11.606812
11.927485
11.497736
11.729598
11.245608
11.630654
11.007786
11.336803
11.805892
11.472702
11.680722
11.339784
11.555552
11.743903
11.960864
11.282563
11.624694
11.873841
11.424422
11.276603
11.570454
10.965466
##ZVALUE=295
0.426769
0.444651
0.542998
0.551939
0.387430
0.696778
0.461936
0.607967
0.645518
0.699759
0.533462
0.745654
0.699759
0.712872
0.748634
0.542998
0.757575
0.827909
0.782609
0.918508
0.769496
0.889897
1.040697
1.349449
1.339912
1.302958
1.584888
1.810789
2.378821
4.406571
26.404858
77.832937
179.266930
424.412489
689.566731
1015.944481
1015.944481
1015.944481
1015.944481
1015.944481
1015.944481
885.489583
588.951707
288.757682
156.789422
57.268739
28.225780
22.536516
30.179620
48.520565
65.444708
92.266798
111.826658
130.715966
138.327479
133.527517
120.888948
99.528432
80.353618
56.641698
40.456653
25.133491
16.806722
11.565685
8.995533
7.901788
8.244514
8.486509
8.992553
9.198785
9.763837
10.134578
10.657907
11.062622
11.526942
11.155605
11.292696
11.653900
11.583567
11.044741
11.360645
11.280775
11.261702
11.266470
11.260509
11.377931
11.630654
11.302829
11.606812
11.234879
11.310577
11.157990
11.263490
11.261702
11.120439
11.178851
##ZVALUE=300
0.344515
0.561476
0.481606
0.307560
0.453591
0.390410
0.598431
0.596642
0.605583
0.493526
0.452995
0.461936
0.633597
0.638962
0.684857
0.692606
0.749826
0.752807
0.766516
0.929832
0.844598
0.765920
1.095533
1.012683
1.136661
1.097918
1.358986
1.403689
1.665950
1.525879
1.898408
2.442598
7.282495
47.148466
123.547912
318.003893
545.983911
937.461853
1015.943885
1015.943885
1015.943885
1015.943885
1015.943885
990.715027
727.406740
397.451520
233.104825
100.176930
44.556856
18.758774
18.568635
27.872920
39.243698
61.694980
81.122518
106.861591
120.453835
129.874945
129.542947
116.920471
101.838708
76.596737
58.912635
39.447546
27.632713
17.065406
12.823939
10.130405
9.192824
9.265542
9.830594
10.379553
11.045933
11.141896
11.201501
11.361837
11.294484
11.679530
11.546612
11.438727
11.079907
11.724830
11.568666
11.485815
11.593699
11.379719
11.547804
11.801720
11.613965
11.273623
11.444688
11.132956
11.127591
11.441708
11.031628
10.952950
##ZVALUE=305
0.388622
0.627637
0.476837
0.559688
0.496507
0.604987
0.495911
0.510812
0.636578
0.593662
0.580549
0.494719
0.408888
0.381470
0.667572
0.700951
0.730753
0.542998
0.698566
0.825524
0.843406
0.941753
0.876784
0.833869
0.974536
1.075864
1.064539
1.075864
1.191497
1.361966
1.570582
1.617670
1.831651
2.262592
3.905892
24.437904
71.730614
220.167637
412.846804
791.770816
1015.946865
1015.946865
1015.946865
1015.946865
1015.946865
1015.946865
936.179757
575.485826
345.466733
144.929886
67.541599
23.328662
14.634728
17.950535
25.534630
41.526556
57.057738
80.868602
98.347664
116.274953
122.356415
121.215582
112.568736
94.602704
78.034997
54.390430
40.351748
25.919676
17.992854
12.939572
11.439919
10.714531
10.625720
11.084676
10.654926
11.195540
10.997653
11.298656
11.122823
10.844469
11.272430
11.374950
11.291504
11.369586
11.347532
11.727810
11.806488
11.324883
11.739731
11.621714
11.146665
11.209846
11.207461
11.552572
10.652542
11.084676
##ZVALUE=310
0.285506
0.381470
0.504851
0.460744
0.489950
0.272989
0.392795
0.254512
0.383854
0.352859
0.496507
0.370741
0.340939
0.549555
0.534654
0.559688
0.633597
0.473857
0.562668
0.653863
0.740886
0.654459
0.807643
0.684857
0.647902
0.794530
0.717640
0.842810
0.871420
1.026988
1.170635
1.133680
1.199841
1.457930
1.635551
1.932979
2.305508
10.163784
35.628676
127.831697
261.075497
557.819009
855.633616
1015.938520
1015.938520
1015.938520
1015.938520
1015.938520
1015.938520
754.763484
494.392514
241.657495
125.489831
41.430593
17.457604
12.273788
15.664697
23.371577
33.513904
53.552985
70.163608
92.331767
105.682611
116.912723
116.775632
107.782483
95.794797
75.337887
59.392452
38.639903
29.322505
19.701719
15.261769
12.641549
11.463761
10.894537
11.176467
11.110902
10.904670
11.415482
11.442900
11.422634
11.508465
11.793971
11.832714
11.884570
11.789799
11.704564
11.550784
11.362433
11.278987
11.536479
11.333823
11.025667
10.803938
11.166930
##ZVALUE=315
0.319481
0.370741
0.373721
0.410676
0.267625
0.413656
0.284910
0.447631
0.234842
0.396967
0.398755
0.509620
0.545979
0.448823
0.499487
0.381470
0.523925
0.531673
0.498891
0.631809
0.533462
0.649691
0.392795
0.513792
0.619888
0.704527
0.763535
0.815988
1.035929
0.957847
0.845790
1.009703
1.093745
1.252890
1.374483
1.539588
1.502633
1.698732
2.014637
4.179478
16.835928
75.290799
169.628859
404.688120
685.354471
1015.905738
1015.905738
1015.905738
1015.905738
1015.905738
1015.905738
967.346430
677.426457
353.533626
189.832449
66.220760
26.208758
11.351705
11.292696
14.711618
21.311641
33.662915
46.262741
67.240596
83.792806
102.770925
110.074878
111.051798
106.001496
88.284612
73.725581
56.219697
41.775703
27.314425
20.172000
15.018582
12.550950
11.649728
10.858774
11.201501
11.216998
11.179447
11.806488
11.909604
11.422634
11.588931
11.944771
11.858940
11.820793
11.534691
11.488795
11.659861
11.673570
11.206865
11.278987
10.812879
##ZVALUE=320
0.401735
0.433922
0.503659
0.526905
0.399947
0.540614
0.368953
0.497699
0.484586
0.640750
0.705719
0.576973
0.538826
0.545979
0.597835
0.609756
0.580549
0.537634
0.621676
0.593662
0.508428
0.698566
0.703931
0.647902
0.750422
0.956655
0.825524
0.914931
0.889897
0.767708
1.024604
1.048446
1.176596
1.229644
1.162887
1.361966
1.320839
1.473427
1.608729
1.964569
2.001524
2.784729
7.640719
44.454932
116.811991
308.491588
526.690483
908.876657
1016.061902
1016.061902
1016.061902
1016.061902
1016.061902
1016.061902
893.889070
466.421843
255.502462
102.752447
44.647455
14.713407
10.331869
10.870695
13.648868
20.271540
28.908849
45.499802
60.260892
80.197453
93.651414
104.792714
106.305480
99.807978
89.405775
69.727898
55.490732
38.113594
28.573871
19.649863
15.828609
13.081431
12.340546
11.909604
11.743903
11.869669
12.024641
12.104511
11.851788
11.905432
11.605620
11.903644
11.732578
11.446476
11.315942
11.394620
11.340976
11.326671
##ZVALUE=325
0.581741
0.483990
0.381470
0.513792
0.492930
0.483990
0.579953
0.574589
0.684857
0.547767
0.665784
0.746846
0.448823
0.484586
0.540614
0.696778
0.623465
0.693798
0.742674
0.670552
0.693798
0.628829
0.715852
0.516772
0.904799
0.807643
0.745654
0.674725
0.864863
0.846982
0.996590
0.981688
0.947714
1.037717
1.166463
1.200438
1.185536
1.348853
1.311898
1.497865
1.463890
1.753569
1.978874
2.304912
4.631877
30.114651
82.922578
232.160687
420.950651
789.676905
1016.072035
1016.072035
1016.072035
1016.072035
1016.072035
1016.071439
955.213904
570.515990
336.591601
138.906837
63.793659
19.931793
10.942817
9.457469
10.841489
13.861656
19.105673
30.057430
42.280555
61.360002
76.385736
90.393424
99.716783
100.343823
94.209909
80.950856
66.942573
49.342513
37.960410
25.213957
19.649863
14.983416
13.194680
12.569427
12.231469
11.830926
11.587739
11.790991
11.919737
11.719465
11.640787
11.247993
11.089444
11.235476
11.220574
11.348724
##ZVALUE=330
0.312924
0.457764
0.336766
0.302792
0.477433
0.292659
0.295639
0.468493
0.304580
0.527501
0.369549
0.490546
0.425577
0.468493
0.464916
0.513792
0.267625
0.337958
0.452995
0.490546
0.457764
0.471473
0.478625
0.393987
0.593662
0.624657
0.577569
0.477433
0.564456
0.599623
0.690818
0.789762
0.728965
0.716448
0.895858
0.783801
0.774860
0.818968
0.893474
1.173615
1.125932
1.163483
1.232624
1.474619
1.726747
2.084970
2.880692
15.010834
51.127672
165.339708
318.903923
628.696680
927.050710
1015.943885
1015.943885
1015.943885
1015.943885
1015.943885
1015.943885
705.138445
443.105698
200.140476
97.067952
32.594800
13.757944
9.306669
9.192824
10.485649
13.128519
19.924641
28.078556
41.790605
55.575967
74.367523
85.678697
94.425678
94.941854
88.107586
77.847838
61.464906
48.668981
34.797788
26.323795
19.084811
15.494823
13.403893
12.322664
11.801720
11.540651
11.144876
10.985732
11.039972
10.620952
10.961890
10.724664
10.793805
##ZVALUE=335
0.256896
0.142455
0.268817
0.299811
0.243783
0.373721
0.367761
0.445843
0.435710
0.410676
0.450611
0.444651
0.312924
0.311732
0.290871
0.287890
0.325441
0.297427
0.419617
0.257492
0.317693
0.430942
0.412464
0.556707
0.455976
0.460744
0.503659
0.431538
0.588894
0.589490
0.612736
0.665784
0.660419
0.720620
0.757575
0.650883
0.688434
0.744462
0.771880
0.798702
0.863671
1.009703
1.001954
1.065731
1.216531
1.346469
1.587868
1.762509
1.947880
6.100535
25.464892
109.100938
231.794715
505.148768
790.452957
1015.944481
1015.944481
1015.944481
1015.944481
1015.944481
1015.944481
795.388818
536.045432
273.253918
139.718652
44.752955
18.623471
9.933710
9.338856
9.458661
10.646582
13.273954
17.945766
28.728843
39.070845
54.913759
67.350864
81.867576
86.925626
88.297725
83.158612
71.523786
60.008764
46.680570
36.976933
25.867820
20.589828
15.478730
13.099909
11.689663
11.219978
10.889769
10.789633
10.788441
10.478497
10.510683
##ZVALUE=340
0.219941
0.071526
0.107884
0.152588
0.303984
0.138879
0.300407
0.291467
0.182986
0.127554
0.233650
0.105500
0.224710
0.254512
0.245571
0.156760
0.080466
0.110865
0.303984
0.310540
0.191927
0.183582
0.344515
0.387430
0.438690
0.312924
0.375509
0.309944
0.396967
0.410676
0.397563
0.396967
0.516772
0.470877
0.607967
0.615716
0.575781
0.549555
0.773668
0.692606
0.716448
0.646710
0.903606
0.869632
1.052618
1.029968
1.073480
1.215935
1.179576
1.612902
1.744628
3.178716
12.009740
67.601800
168.236494
410.500765
683.197975
1015.851498
1015.851498
1015.851498
1015.851498
1015.851498
1015.851498
916.514993
627.948642
323.484540
177.925825
70.861578
27.597547
10.761619
9.164810
9.149909
9.502769
10.859966
13.323426
19.105673
26.028752
38.105845
50.387979
65.982938
76.088905
82.519650
82.836747
77.631474
70.029497
58.003664
46.918988
34.435987
26.620626
18.817782
14.947653
12.563467
10.991693
10.502934
10.214448
10.389686
##ZVALUE=345
0.243783
0.241995
0.247955
0.385642
0.124574
0.208616
0.303984
0.263453
0.185966
0.253916
0.221729
0.331998
0.208616
0.343919
0.290871
0.311732
0.363588
0.402927
0.274777
0.420809
0.298619
0.353456
0.514984
0.274777
0.362992
0.296831
0.424981
0.374913
0.365973
0.313520
0.440478
0.445843
0.514984
0.558496
0.718832
0.634789
0.589490
0.521541
0.665784
0.575781
0.671744
0.724792
0.896454
0.956655
0.980496
1.038909
0.839829
1.132488
1.071692
1.468658
1.315475
1.743436
1.871586
2.292395
5.460978
37.466884
109.586716
297.550559
536.492467
966.359973
1015.912890
1015.912890
1015.912890
1015.912890
1015.912890
1015.912890
837.294459
478.301644
268.078446
103.716850
46.065450
15.839934
10.478497
9.357929
9.698868
9.346604
10.311604
12.966990
16.871691
24.678707
34.060478
48.681498
58.217645
69.606900
74.808002
77.685714
74.572563
66.422820
57.351589
44.637918
34.696460
24.629831
19.218922
14.319420
12.154579
10.757446
##ZVALUE=350
0.448823
0.375509
0.301600
0.332594
0.333786
0.398755
0.369549
0.380874
0.385642
0.380874
0.396967
0.244975
0.269413
0.316501
0.459552
0.394583
0.416636
0.282526
0.456572
0.418425
0.426769
0.483990
0.502467
0.468493
0.467896
0.437498
0.620484
0.530481
0.583529
0.502467
0.277758
0.477433
0.529885
0.679493
0.667572
0.765920
0.582933
0.790954
0.710487
0.638962
0.784993
0.695586
0.813603
0.842810
0.829697
0.903606
1.013875
1.077652
1.178980
1.229644
1.221895
1.362562
1.509786
1.756549
1.828671
2.201796
3.283620
18.907785
66.028833
216.281414
411.179662
807.103515
1015.949845
1015.949845
1015.949845
1015.949845
1015.949845
1015.949845
964.768529
543.726683
325.185657
143.780708
64.662695
19.524693
10.940433
8.916855
8.784533
8.783937
8.856654
9.850860
11.795759
16.500950
22.196770
31.639934
39.890409
52.516460
61.445832
69.430470
71.234703
68.200827
63.203573
52.873492
43.287873
31.461716
24.647713
18.226504
##ZVALUE=355
0.302792
0.487566
0.369549
0.169873
0.220537
0.417829
0.354648
0.403523
0.317693
0.384450
0.540614
0.379682
0.428557
0.451803
0.434518
0.435710
0.325441
0.359416
0.366569
0.426769
0.413656
0.544786
0.520945
0.616908
0.570416
0.428557
0.464916
0.535846
0.436902
0.565648
0.401735
0.460744
0.634789
0.547767
0.511408
0.633597
0.648499
0.587702
0.664592
0.598431
0.565648
0.726581
0.905991
0.644922
0.828505
0.748634
0.906587
0.948906
1.072884
1.000762
1.014471
1.164675
1.186728
1.376867
1.483560
1.552701
1.943707
2.191663
2.540946
8.443594
37.572980
153.083801
307.690501
627.099872
955.256820
1015.943885
1015.943885
1015.943885
1015.943885
1015.943885
1015.943885
694.612861
420.495868
176.719427
81.299543
24.446845
11.894703
8.814931
8.644462
8.346438
8.203983
8.465648
9.185672
11.299849
14.072657
19.839406
26.641488
36.822557
44.937730
54.692626
60.697794
64.374804
63.342452
57.270527
49.730539
39.626956
##ZVALUE=360
0.189543
0.260472
0.314713
0.401735
0.398755
0.371933
0.355840
0.245571
0.453591
0.406504
0.326633
0.431538
0.395775
0.400543
0.371933
0.446439
0.261664
0.522733
0.457764
0.565648
0.468493
0.563860
0.639558
0.491738
0.494719
0.500679
0.492930
0.485778
0.435710
0.454783
0.662804
0.556707
0.634789
0.636578
0.596642
0.505447
0.627637
0.750422
0.764728
0.650883
0.596642
0.525713
0.595450
0.958443
0.795722
0.937581
0.651479
0.850558
1.011491
1.030564
1.176000
1.050830
1.089573
1.308918
1.240969
1.385808
1.653433
1.633763
1.887679
2.062917
2.346635
3.494620
16.866922
58.729649
199.106932
376.162529
745.476484
1015.943885
1015.943885
1015.943885
1015.943885
1015.943885
1015.943885
953.176022
535.023808
308.775902
123.249888
51.577687
15.521646
9.094477
8.246899
8.049607
8.004904
7.706881
7.607937
8.272529
9.592772
11.698604
16.541481
21.745563
30.527711
38.498640
47.718883
54.174662
58.640838
57.995915
##ZVALUE=365
0.181794
0.250936
0.331998
0.367761
0.467896
0.355840
0.228882
0.327826
0.447631
0.493526
0.418425
0.325441
0.339746
0.354648
0.244975
0.363588
0.306964
0.312924
0.314713
0.357628
0.396967
0.554919
0.460744
0.539422
0.484586
0.414848
0.441670
0.379682
0.619888
0.463724
0.296831
0.594854
0.570416
0.602603
0.511408
0.413656
0.573993
0.605583
0.619888
0.534654
0.483990
0.658631
0.711679
0.881553
0.899434
0.744462
0.731945
0.809431
0.818968
0.772476
0.707507
0.918508
0.795722
1.007915
1.002550
0.919700
1.147985
1.211762
1.434684
1.546741
1.721978
1.965761
2.255440
2.528429
5.647540
37.633777
106.926560
284.386873
516.133904
938.145518
1015.943885
1015.943885
1015.943885
1015.943885
1015.943885
991.793871
708.861947
377.950668
196.822882
66.901445
25.722980
9.440780
7.875562
7.524490
7.296801
7.146597
7.189512
6.983876
7.106662
7.834435
9.683967
13.503432
18.500686
26.025772
32.987595
41.859746
##ZVALUE=370
0.289679
0.343919
0.278950
0.376701
0.423789
0.358820
0.408888
0.403523
0.347495
0.340939
0.288486
0.266433
0.310540
0.393987
0.261664
0.382662
0.521541
0.473857
0.420809
0.375509
0.253916
0.448823
0.330806
0.558496
0.263453
0.356436
0.434518
0.295639
0.560880
0.467896
0.500679
0.476837
0.462532
0.487566
0.522733
0.505447
0.431538
0.528693
0.433922
0.631809
0.546575
0.573993
0.661612
0.530481
0.695586
0.622869
0.611544
0.755787
0.631809
0.605583
0.759959
0.967979
0.886917
0.877976
0.932813
1.037717
0.974536
1.043677
1.025796
1.054406
1.500845
1.363754
1.676679
1.758933
2.122521
2.420545
3.520846
14.109612
80.028772
204.028487
491.391420
789.085031
1015.943885
1015.943885
1015.943885
1015.943885
1015.943885
1015.943885
879.238844
549.313426
241.982937
117.336512
40.871501
16.055703
7.637739
7.066727
6.652474
6.242990
6.199479
6.206632
6.350875
6.294847
7.089972
8.615851
11.936426
15.804768
##ZVALUE=375
0.204444
0.341535
0.373721
0.323653
0.325441
0.321865
0.360608
0.406504
0.309944
0.309944
0.387430
0.272989
0.262856
0.372529
0.342727
0.276566
0.322461
0.385642
0.429749
0.353456
0.333786
0.360608
0.415444
0.336766
0.484586
0.569820
0.572801
0.342727
0.408888
0.340939
0.347495
0.532866
0.583529
0.614524
0.505447
0.435710
0.576973
0.402927
0.436902
0.431538
0.329614
0.574589
0.656843
0.632405
0.657439
0.556707
0.644922
0.469685
0.658631
0.591874
0.595450
0.592470
0.637770
0.734925
0.936985
0.752807
0.836849
0.780821
1.006722
1.056790
1.081824
1.222491
1.311898
1.213551
1.338720
1.701713
2.002716
2.101660
2.691746
8.930564
33.289790
129.159689
284.472704
647.767782
983.863473
1015.943885
1015.943885
1015.943885
1015.943885
1015.943885
1015.943885
687.238574
422.480702
198.137760
93.681812
27.189851
10.779500
6.664991
6.534457
6.018877
5.780458
5.758405
5.763769
5.842447
5.781651
6.426573
##ZVALUE=380
0.127554
0.188947
0.184774
0.205636
0.297427
0.171661
0.148416
0.169873
0.260472
0.332594
0.336766
0.308752
0.270605
0.142455
0.224710
0.357628
0.343919
0.188947
0.185966
0.444651
0.243783
0.313520
0.232458
0.173450
0.490546
0.341535
0.519753
0.235438
0.277758
0.266433
0.394583
0.226498
0.318885
0.247955
0.275970
0.370741
0.410676
0.304580
0.411868
0.547767
0.436902
0.392795
0.417829
0.372529
0.461936
0.483990
0.434518
0.412464
0.531673
0.516772
0.483990
0.461936
0.619888
0.653863
0.736713
0.491738
0.659823
0.782609
0.799894
0.764728
0.695586
0.956655
0.976920
1.176000
1.174808
1.296997
1.379848
1.396537
1.880527
1.976490
2.790689
4.022717
21.636486
72.181821
226.239562
420.837402
806.881785
1015.944481
1015.944481
1015.944481
1015.944481
1015.944481
1015.944481
944.116712
546.817780
313.909650
120.579004
50.011873
13.287663
7.218719
5.773902
5.599856
5.464554
5.454421
5.237460
5.160570
##ZVALUE=385
0.232458
0.160933
0.045896
0.133514
0.104904
0.309944
0.209808
0.421405
0.274777
0.225902
0.330806
0.225902
0.067949
0.288486
0.292659
0.266433
0.340939
0.285506
0.307560
0.300407
0.277758
0.427961
0.133514
0.272989
0.292659
0.390410
0.146627
0.239611
0.194907
0.125766
0.422597
0.255704
0.321865
0.404716
0.398755
0.193715
0.271797
0.290871
0.362992
0.401735
0.372529
0.356436
0.490546
0.385642
0.457764
0.517964
0.609756
0.549555
0.660419
0.415444
0.467896
0.367761
0.553727
0.624657
0.679493
0.671744
0.607967
0.600815
0.673532
0.557899
0.699759
0.613928
0.712872
0.656843
0.917912
1.060963
0.985861
1.349449
1.260638
1.646876
1.901984
2.206564
1.977682
2.755523
7.371902
45.631528
123.014450
326.732397
577.746630
985.672474
1015.943885
1015.943885
1015.943885
1015.943885
1015.943885
974.221826
700.570941
397.173762
218.198895
75.184703
28.285980
7.948875
5.465746
5.116463
5.180836
4.813671
##ZVALUE=390
0.198483
0.145435
0.140667
0.179410
0.354648
0.281930
0.339746
0.299811
0.299811
0.169873
0.206828
0.217557
0.151992
0.296831
0.252724
0.132918
0.254512
0.200868
0.227690
0.196695
0.199676
0.115633
0.231862
0.355840
0.316501
0.229478
0.206828
0.317693
0.186563
0.257492
0.021458
0.120997
0.244975
0.410676
0.268817
0.292659
0.311732
0.481606
0.330806
0.255704
0.416636
0.294447
0.302792
0.311732
0.380874
0.321865
0.420809
0.402927
0.281930
0.504851
0.381470
0.434518
0.458956
0.514984
0.500679
0.469685
0.560880
0.539422
0.636578
0.513792
0.642538
0.574589
0.679493
0.729561
0.866652
0.937581
1.029968
1.103878
1.167655
1.550913
1.397729
1.562834
1.659989
1.875758
1.860857
2.315640
3.908873
26.391745
83.593726
253.106952
466.374755
856.366754
1015.943885
1015.943885
1015.943885
1015.943885
1015.943885
1015.943885
828.951597
488.017797
274.747610
108.710527
47.375560
12.753606
6.268620
5.038977
##ZVALUE=395
0.225902
0.202656
0.249743
0.230670
0.241995
0.236630
0.339746
0.010729
0.183582
0.244975
0.245571
0.237823
0.347495
0.227690
0.253916
0.244975
0.345707
0.249743
0.217557
0.228882
0.181794
0.151992
0.163913
0.325441
0.233650
0.269413
0.304580
0.490546
0.481606
0.211596
0.232458
0.177622
0.320673
0.462532
0.351667
0.219941
0.352859
0.269413
0.180602
0.366569
0.247955
0.222921
0.508428
0.342727
0.359416
0.288486
0.237823
0.384450
0.428557
0.537634
0.499487
0.383854
0.513792
0.611544
0.582933
0.631809
0.526905
0.650883
0.644922
0.542998
0.550747
0.589490
0.710487
0.781417
0.789762
0.843406
0.938773
0.967979
1.296997
1.504421
1.461506
1.629591
1.554489
1.605749
1.432896
1.638532
1.740456
1.878738
2.642870
14.662743
57.917833
198.851824
368.538499
678.187609
970.132947
1015.943885
1015.943885
1015.943885
1015.943885
1015.943885
1011.806726
653.701425
398.790836
164.315701
74.288845
21.808743
##ZVALUE=400
0.193715
0.166893
0.133514
0.164509
0.243783
0.238419
0.102520
0.289679
0.225902
0.271797
0.184774
0.307560
0.342727
0.259876
0.135899
0.236630
0.241995
0.320673
0.306964
0.271797
0.163913
0.349879
0.234842
0.270605
0.287890
0.246763
0.305772
0.297427
0.194907
0.329614
0.364780
0.096560
0.191927
0.294447
0.329614
0.274777
0.413656
0.407696
0.427961
0.362992
0.409484
0.374913
0.439882
0.387430
0.365973
0.542998
0.523925
0.319481
0.340939
0.365973
0.475645
0.421405
0.624657
0.641942
0.434518
0.594854
0.473857
0.488758
0.745654
0.382662
0.659823
0.623465
0.699759
0.687838
0.697970
0.694990
0.771880
0.971556
1.029968
1.318455
1.315475
1.366735
1.287460
1.307726
1.422763
1.462698
1.192689
1.544952
1.656413
1.860857
2.194643
5.877614
24.711490
107.320547
233.649611
520.193577
825.888515
1015.943885
1015.943885
1015.943885
1015.943885
1015.943885
1015.943885
855.270028
545.457006
257.508755
##END
