##TITLE=QP00602
##FORMAT=SPECTACLE-ASCII V-1.2
##DATA TYPE=ULTRAVIOLET SPECTRUM
##SECOND TYPE=ULTRAVIOLET SPECTRUM
##DATE=01/21/18
##TIME=16:19:10
##SPECTROMETER/DATA SYSTEM=SPECTACLE
##XUNITS=NM EM
##YUNITS=ENERGY
##YFACTOR=1
##FIRSTX=220
##LASTX=410
##NPOINTS=96
##3DDATA=Equidistant
##ZUNITS=NM EX
##FIRSTZ=210
##LASTZ=400
##ZPOINTS=39
##XYDATA=(Y..Y)
##ZVALUE=210
1.485944
1.630783
1.578927
1.574755
1.551509
2.010465
2.029538
2.211928
2.049804
2.337694
1.825690
1.933575
1.529455
1.644492
2.510548
2.789497
2.638698
3.008842
3.032684
3.232956
3.786683
3.029704
2.993941
3.501773
3.639460
4.086494
3.368855
4.063845
3.750920
3.653765
4.062653
4.221797
4.532933
4.117489
4.735589
4.851818
4.788637
4.822612
5.037785
4.871488
4.771948
5.970597
5.716681
6.262660
5.648732
5.755424
5.982518
5.591512
5.837679
6.130934
5.648732
6.846786
6.714463
6.323457
6.757975
6.500483
6.648898
5.886555
6.348491
6.280541
6.863475
6.653666
7.159710
6.952882
7.854700
7.830858
8.643866
8.737445
10.699630
12.364984
14.791489
18.257499
20.367503
23.208857
24.862885
27.118921
25.509000
26.400685
27.499795
25.892854
23.641586
20.755529
17.825961
14.964938
13.008714
10.863543
10.290742
8.816719
7.575750
8.170605
7.852912
7.388592
7.713437
7.853508
7.520914
7.615685
##ZVALUE=215
5.102754
4.761815
4.594922
3.558993
3.278852
3.245473
3.863573
4.176497
3.944635
4.465580
3.751516
4.172921
3.516674
3.101826
2.716780
3.102422
2.483726
2.478957
2.712607
3.355742
3.073812
3.025532
2.821684
3.806949
3.738999
4.705787
3.830791
4.085898
4.827976
4.788637
4.347563
5.497932
4.750490
4.794598
5.716681
5.558729
5.144477
5.007982
5.957484
5.596876
6.223917
5.268455
5.893707
6.152987
6.558895
5.403757
6.684661
6.373525
5.859733
6.475449
6.135702
6.051660
7.312894
6.758571
6.166697
6.704926
7.395744
7.888675
7.057786
7.351637
7.592440
7.509589
7.436872
8.007884
8.817911
8.473992
9.415746
9.890795
11.259913
12.698770
15.295744
19.659996
21.393895
22.925735
24.014711
26.547909
25.624633
25.731921
24.037957
20.918846
20.727515
20.078421
17.471910
17.629862
13.049841
11.100769
10.110736
8.315444
8.062720
7.712841
7.920861
7.408857
7.343888
8.004904
8.255839
7.426739
##ZVALUE=220
17.372966
18.146634
23.651719
21.118522
19.773841
17.875433
13.239980
10.976791
9.380579
9.401441
9.026527
11.210442
10.299683
9.731650
9.245872
6.603599
5.026460
4.003644
3.901720
3.836751
4.079938
4.106760
4.662871
3.903508
4.642606
4.437566
5.540848
4.664660
5.812645
5.895495
5.973577
6.076694
5.594492
6.091595
6.949902
6.910563
6.452799
7.591844
8.164644
6.692410
7.693768
8.340478
8.634925
7.205606
7.578731
8.121729
8.716583
8.292794
8.285642
8.325577
8.233786
8.140802
9.262562
7.263422
8.574724
8.805990
9.277463
9.460449
9.522438
9.964705
9.641647
9.226799
10.387897
10.045767
9.242892
10.074973
10.970831
12.469888
13.312697
13.927817
17.356873
20.051599
22.996664
23.566484
27.467608
26.925802
25.383830
25.221705
25.306940
23.640990
22.813678
21.003485
19.558668
17.009974
16.097426
13.136864
11.516809
11.528730
10.727644
10.426641
9.958744
9.154677
10.803938
10.384917
9.790659
9.805560
##ZVALUE=225
34.264922
34.367442
46.156645
69.542527
78.533888
86.892843
85.837841
74.435472
61.585903
42.900443
29.147863
23.351908
22.986531
24.509430
25.377870
24.230480
21.090508
16.817451
13.183951
11.070967
7.023811
5.471706
4.404783
5.556941
4.879832
5.289912
5.537868
5.813837
6.077886
7.218719
7.105470
6.700754
7.457733
8.485913
8.480549
8.470416
9.022951
9.439588
9.841919
9.912848
10.165572
9.840727
9.227991
10.498762
10.840893
9.849668
10.132790
10.376573
11.460781
9.731650
10.225773
10.728836
10.731816
11.420846
11.179447
11.636615
10.703802
11.457801
12.659431
12.477636
11.671782
12.690425
11.966825
11.159778
12.165904
13.225675
13.729930
13.498664
15.250444
18.877983
19.384623
22.633672
23.396611
25.621653
27.747750
27.639866
27.086735
28.037429
28.162599
24.596453
22.936463
19.468665
18.777847
17.850995
16.843677
15.638471
14.741421
14.186502
13.844967
14.693737
14.663935
13.179779
12.925863
11.382699
12.887716
12.803674
##ZVALUE=230
28.371811
31.126738
57.114959
100.044608
139.094591
185.309649
211.550593
230.132937
215.285420
193.885565
140.070915
99.461675
61.100721
49.035549
48.302412
47.154427
50.757527
49.575567
46.218634
37.676692
29.760599
18.592477
12.575984
8.354783
5.951524
6.055832
6.018877
6.618500
6.491542
6.463528
7.140636
7.699728
7.386804
7.943511
8.481741
8.645654
8.960962
9.442568
9.710789
9.264946
9.724498
9.314418
10.889769
11.422634
10.383725
12.248755
9.793639
11.100769
11.696815
11.023879
11.721849
11.258721
11.959672
11.449456
11.341572
11.028647
11.247993
12.701750
12.691617
13.597608
13.049841
14.131665
13.022423
13.855696
15.694499
15.919805
15.817881
16.845465
18.411875
21.856427
21.587610
24.778843
26.404858
28.767586
31.690598
31.068921
30.992627
29.567480
29.628873
26.936531
26.227832
24.697781
24.337769
22.231936
22.968650
20.227432
20.594597
18.809438
20.153522
19.663572
18.935800
19.285679
19.177794
19.542575
18.065572
19.859672
##ZVALUE=235
8.826852
10.023713
28.079748
55.657625
118.807554
180.431008
279.756784
354.291797
427.137017
448.879004
404.199958
346.462727
265.331864
175.577998
125.975609
84.965825
74.825883
76.432824
81.602931
83.358884
78.641772
67.042708
53.370595
39.895773
25.241971
16.752481
11.560917
9.703636
8.491874
7.936954
6.788969
8.389950
8.322597
9.095669
8.683801
9.028912
9.020567
10.000467
9.105802
9.749532
10.369420
9.996891
10.641813
9.979606
10.954738
11.300445
10.325909
11.495948
11.448860
11.638999
12.204647
11.333823
12.186766
12.612939
12.995601
13.071895
12.771487
13.507605
14.090538
15.182495
15.906692
15.797615
15.092492
17.892718
17.413497
17.186999
18.392801
19.020438
20.157695
24.102926
25.130510
26.989579
29.192567
31.666756
33.822656
34.539700
35.273433
34.147501
34.138560
32.836795
32.677650
31.820536
30.447841
27.852654
28.826594
26.579499
27.141571
28.055906
28.386712
26.059747
27.426481
27.726889
25.891662
26.739836
26.780963
28.077960
##ZVALUE=240
1.990795
2.394915
6.066561
15.837550
44.745803
83.847642
171.950459
261.525512
402.932763
499.455929
565.842986
583.037734
542.346835
441.844463
349.130630
226.995945
166.186690
112.278461
96.479654
102.296472
114.752650
117.967725
113.112926
105.856657
83.368421
66.181421
47.946572
33.467412
19.047856
13.136864
9.721518
8.520484
6.894469
7.760525
8.980632
8.434653
7.947683
8.296967
8.386970
9.829998
7.683635
8.100867
8.168817
8.749962
8.011460
8.246899
8.762479
9.337664
9.482503
8.905530
9.080768
9.168983
9.252429
10.262728
11.713505
11.289716
12.027621
11.763573
11.943579
12.789965
14.276505
13.438463
15.245676
15.155673
16.685724
16.285777
19.073486
19.915700
21.820664
23.790598
24.001598
28.044581
31.005740
33.464432
33.289790
35.918951
37.835836
36.318898
38.365722
34.940839
34.953952
36.844611
35.149455
34.278631
32.371879
31.475425
33.415556
31.320453
32.508969
32.125711
32.338500
29.723644
30.137897
31.864643
31.037927
31.710863
##ZVALUE=245
1.833439
1.055598
1.064539
1.350641
4.358888
12.806654
47.383904
98.021626
215.024948
326.111913
487.803817
594.783425
659.737587
690.563917
644.264817
532.193780
414.942503
277.214646
189.739466
122.181773
99.142790
101.604462
119.201541
126.651525
133.531690
127.457976
115.024447
94.356537
75.182915
55.106878
39.518476
21.889806
15.928745
9.682775
8.375645
8.800626
7.849932
7.134676
7.876754
8.173585
7.523894
7.417798
7.413626
7.080436
7.516742
7.802844
7.971525
8.019805
7.341504
7.640719
9.240508
8.007884
8.591413
9.162426
9.050965
9.019971
10.106564
10.147691
11.594892
10.585785
10.174513
13.027787
12.980700
13.641715
14.573932
15.915632
16.869903
17.935634
19.695759
22.546649
24.588704
24.756789
28.528571
32.648444
33.170581
33.849478
34.948587
33.851862
36.287904
36.179423
35.497546
32.832623
33.497810
33.556819
33.363700
33.035874
32.033920
32.245517
30.944943
32.637715
32.122731
32.331944
33.200979
32.188892
30.047894
30.894876
##ZVALUE=250
1.197457
0.948906
1.039505
1.205802
1.218915
1.158714
2.502799
7.004738
36.830902
89.471936
223.055482
366.396904
530.990958
732.756853
838.287473
881.546736
837.364793
709.250569
579.316616
385.584831
256.954432
167.305470
104.324818
96.031427
108.930469
124.995708
142.789483
147.748590
135.045648
125.544667
108.388662
80.225468
58.915615
36.104918
22.770762
14.048815
10.027885
8.615851
7.625818
7.638931
7.827878
7.436872
7.744431
8.117557
7.572770
7.194877
7.666945
7.280707
7.702708
7.444620
7.246733
7.347465
8.424520
8.556843
8.604527
8.997917
9.029508
8.886456
9.216666
9.515882
10.757446
11.410713
10.915995
12.767911
13.518929
14.158487
14.746785
15.492439
18.316507
18.397570
20.335913
22.149682
23.907423
25.396943
28.362870
29.849410
29.304624
31.343699
30.746460
30.426979
29.612780
30.319691
28.404593
31.235814
29.749870
28.699636
28.754473
29.463768
28.813481
30.226707
29.196739
29.720664
30.697584
30.671954
30.246973
29.421449
##ZVALUE=255
0.977516
0.978708
1.084805
0.969768
1.229644
1.110435
1.450777
1.300573
1.556873
3.297925
19.851923
49.666762
110.308528
244.687796
398.205519
632.363558
791.284442
933.633447
974.386930
905.912519
771.059990
607.678890
373.660922
236.932635
131.212473
96.212626
93.120933
107.402802
129.906535
142.703652
150.556564
145.225525
133.859515
106.085539
85.178614
55.305958
38.785934
21.076798
14.875531
9.803772
7.249713
7.718801
8.029938
7.615685
6.810427
6.645918
6.931424
6.487966
7.106662
6.554723
7.237792
7.127523
6.739497
7.672906
7.858872
7.756948
7.453561
7.837415
8.281469
8.242726
9.109974
9.822845
9.530783
10.525584
11.171699
11.549592
11.846423
13.881922
14.704466
15.636683
17.100573
17.951727
19.189715
21.785498
23.394823
23.203492
24.388433
24.751425
26.362538
26.273727
25.952458
26.790500
26.119947
26.526451
28.914809
27.905703
28.476715
27.920604
27.271509
28.004646
28.437972
28.472543
27.913451
27.270913
28.295517
29.851794
##ZVALUE=260
0.764728
0.616908
0.913739
1.023412
0.658631
1.106858
1.188517
0.941753
1.015663
1.509786
1.527667
1.900792
6.305575
28.979778
66.667795
161.263943
266.668797
458.648801
621.369481
829.836726
936.664939
954.657793
863.512754
715.482831
476.595759
329.767466
185.462832
117.378831
79.730749
84.414482
102.726817
128.004551
145.936608
155.938864
150.734782
133.351684
113.347769
83.385706
61.910748
38.847923
25.726557
15.240908
10.876656
8.236766
8.182526
8.254647
7.867813
7.608533
7.533431
8.151531
7.638931
7.395744
7.442832
7.791519
8.256435
8.094907
8.223653
9.177923
8.121729
9.087920
8.773804
9.840727
10.230541
10.388494
10.607839
10.922551
11.885762
13.123751
13.045669
14.700890
15.354753
16.727448
18.753409
19.578934
20.769835
20.801425
21.028519
22.289753
22.474527
23.292899
22.648573
22.899508
24.337769
23.879409
24.602413
24.558902
25.587678
25.575757
26.390553
25.717616
27.345419
25.566816
25.848746
27.467608
26.053786
26.840568
##ZVALUE=265
0.722408
0.776649
0.695586
0.636578
0.732541
0.880957
0.782609
0.799894
1.029968
0.995994
0.987649
0.985861
0.903606
1.465678
3.034472
18.947721
48.417449
124.290586
222.569704
412.174463
575.309992
736.340880
896.487832
922.920704
848.884583
739.497542
549.102426
395.910740
227.977633
138.970613
91.992617
70.611835
83.045959
112.222433
134.808421
155.596733
159.514546
154.641867
138.058662
112.605691
87.703466
58.084726
42.012930
25.385618
17.261505
11.634827
9.942651
9.473562
9.397864
8.690953
8.978844
9.129643
9.000897
9.310842
9.627938
9.747744
9.675622
9.859800
9.858608
9.783506
10.344982
10.693669
10.307431
10.825992
11.248589
11.833906
12.090802
13.040900
14.098883
14.955997
15.972853
16.949773
17.455816
19.010901
19.465685
20.634532
20.407438
21.914840
22.282600
21.743774
23.119450
22.615790
22.797585
23.399591
23.871660
23.269653
23.828745
24.599433
23.901463
24.949908
24.560690
25.195479
24.974942
24.693608
25.402904
25.870800
##ZVALUE=270
0.459552
0.547767
0.647902
0.597835
0.477433
0.717640
0.527501
0.940561
0.845790
0.738502
0.755787
1.084805
0.798702
1.107454
1.475811
1.414418
1.709461
8.248687
25.176406
88.233948
176.791549
316.849947
560.278893
743.182898
937.270522
995.332003
979.780555
883.343816
674.234629
504.309535
358.445644
193.325877
111.465454
66.345930
63.179731
88.425875
113.755465
139.836669
156.398416
162.368417
158.470869
138.437748
118.080974
86.945891
65.414906
39.380789
28.936863
18.893480
14.951825
11.831522
11.239648
11.053681
10.776520
11.106730
10.931492
11.293888
11.139512
11.505485
11.854768
11.295676
11.768937
12.746453
12.728572
12.169480
12.988448
13.799667
13.676882
14.145970
14.544725
15.825629
17.358661
17.857552
17.680526
20.352602
19.828677
20.545721
21.041632
22.018552
21.509528
21.809936
22.457838
22.481680
22.327900
22.544861
23.451447
23.420453
22.809505
23.391843
23.291707
23.759604
24.386644
23.602843
24.100542
24.039745
23.623705
24.986863
##ZVALUE=275
0.692606
0.679493
0.707507
0.452995
0.465512
0.754595
0.860691
0.595450
0.612736
0.885725
0.567436
0.892878
0.952482
0.945926
0.862479
1.107454
1.560450
1.614690
1.687407
3.991723
16.123652
48.383474
170.974731
338.501930
632.115602
855.460763
1015.945673
1015.945673
1015.945673
1015.945673
905.698538
635.569692
439.435840
233.304501
135.620832
67.748427
53.748488
65.874457
85.163713
115.411878
135.605931
155.343413
160.360932
154.679418
141.800642
114.302635
92.921853
64.021945
47.681928
29.576421
22.750497
16.254783
13.789535
13.081431
12.446642
13.107657
13.547540
12.980700
12.888908
13.235807
13.513565
13.838410
14.096498
14.134645
14.872551
15.076995
14.574528
15.663505
15.762448
17.125607
18.333793
18.940568
19.316673
19.852519
20.514727
22.146702
21.191835
21.988750
22.843480
22.307634
22.294521
22.152662
22.063851
23.153424
22.776723
23.010969
22.425652
23.630857
23.701787
22.459626
22.297502
22.660494
22.986531
23.240447
23.748875
23.608804
##ZVALUE=280
0.473857
0.547767
0.452995
0.573993
0.466704
0.419617
0.575781
0.420809
0.563860
0.549555
0.757575
0.478625
0.488758
0.753999
0.791550
0.862479
1.078844
0.993609
1.213551
1.262426
1.558661
1.700521
9.088516
33.555627
110.451579
210.169554
399.954915
592.457652
850.023031
1002.150774
1015.871763
1015.871763
983.338952
749.374628
548.972487
310.625434
186.771750
85.249543
51.671863
46.754479
59.874654
86.729527
110.210776
137.173533
151.059628
157.583952
151.630640
133.769512
113.919973
86.199641
66.347718
42.661428
31.053424
19.557476
14.836788
12.746453
12.042522
12.055635
12.863874
13.074875
13.264418
13.491511
13.827682
13.645887
13.977885
15.028715
15.053749
15.238523
16.330481
17.239451
17.621517
17.925501
19.055605
20.177960
20.016432
21.044612
21.089911
21.315813
21.544695
20.995736
22.415519
21.440983
21.782517
21.858811
21.513700
21.986961
23.048520
22.442937
21.729469
22.181869
22.562742
22.190809
21.676421
22.107959
22.739768
22.238493
##ZVALUE=285
0.382662
0.384450
0.409484
0.586510
0.242591
0.296831
0.265837
0.347495
0.420809
0.641942
0.567436
0.623465
0.522733
0.676513
0.653863
0.793934
0.633597
0.642538
0.833869
0.875592
0.965595
1.050830
1.226664
1.452565
5.642772
19.899607
68.161488
144.206882
315.006971
483.859777
670.830607
927.354693
1015.876532
1015.876532
1015.876532
896.464586
701.602697
438.926816
278.693438
130.733848
68.585873
37.384629
38.270950
58.038831
77.376962
107.038617
126.409531
144.620538
150.902867
147.495866
134.694576
113.395452
91.117620
64.234734
47.615767
28.964877
21.482706
15.831590
14.195442
12.776852
13.201833
13.163686
13.699532
13.792515
14.293790
15.280843
15.477538
15.678406
16.379952
17.274618
18.629432
17.934442
19.571781
20.155907
19.933581
20.864606
20.553470
20.779967
21.089911
21.275878
21.396875
21.492839
22.064447
21.729469
22.103786
21.815896
22.375584
22.506714
22.050738
21.891594
21.488667
21.894574
21.445751
21.826625
21.775961
21.303892
##ZVALUE=290
0.575781
0.479817
0.610948
0.519753
0.437498
0.420809
0.300407
0.442863
0.393987
0.514984
0.525713
0.660419
0.532866
0.676513
0.712872
0.735521
0.756979
0.922680
0.724792
0.698566
0.949502
0.967979
1.095533
1.168847
1.426935
1.678467
2.412796
7.595420
37.733912
91.068745
181.998610
397.155881
626.003742
967.564583
1015.943885
1015.943885
1015.943885
1015.943885
967.597961
653.075576
429.111719
205.338597
105.705857
40.980577
28.022528
36.292672
50.585866
73.540807
94.336867
120.832920
135.116577
146.276951
144.741535
129.695535
112.569928
83.601475
64.407587
42.935610
30.989647
20.410419
16.325712
13.663769
13.655424
13.659596
14.140606
14.540553
15.402436
15.508533
16.687512
17.190576
17.922521
18.427968
19.867420
20.778775
20.235777
20.987988
20.351410
21.545887
21.197796
21.501780
21.281838
21.730661
22.152662
21.741986
21.661520
21.902919
21.113753
22.079945
22.262931
21.600723
21.579862
21.666884
21.614432
21.668673
21.720529
21.257997
##ZVALUE=295
0.473857
0.444651
0.421405
0.323653
0.525713
0.443459
0.424981
0.446439
0.495911
0.643730
0.435710
0.567436
0.545979
0.645518
0.609756
0.568628
0.680685
0.559688
0.679493
0.708699
0.855923
0.687838
0.985861
1.121759
1.035929
1.070499
1.400709
1.496673
1.799464
3.681779
24.534464
70.651770
159.883499
365.039706
573.893785
891.001821
1015.944481
1015.944481
1015.944481
1015.944481
1015.944481
778.660774
535.870790
270.976424
146.064758
54.812431
28.519630
22.797585
30.197501
47.661662
65.399408
92.599988
110.071898
129.570961
138.467550
136.198997
125.688910
102.247000
84.890723
60.230494
45.080781
30.084848
22.523999
16.788840
14.958978
14.094710
14.525652
14.823675
15.886426
16.929507
17.505884
18.516779
18.704534
19.158721
19.853711
19.907951
20.362735
20.657778
20.686984
21.325946
20.894408
21.205544
21.789670
21.391511
21.616817
22.111535
21.523833
21.682978
21.908879
21.738410
21.247864
20.825863
21.048784
21.136999
20.829439
20.588636
##ZVALUE=300
0.351667
0.432730
0.480413
0.382662
0.356436
0.503659
0.368953
0.374913
0.516772
0.537634
0.535846
0.554919
0.408888
0.505447
0.419617
0.685453
0.555515
0.616908
0.553727
0.510812
0.787973
0.668764
0.784993
0.853539
0.876784
0.977516
1.090765
1.076460
1.371503
1.370907
1.696944
1.882911
8.275509
31.889677
108.730793
214.673877
436.685681
676.192641
997.028947
1015.943885
1015.943885
1015.943885
1015.943885
1015.943885
722.695589
465.107560
222.050548
110.009909
36.913753
19.535422
19.589663
26.618838
43.157935
59.521794
84.243417
104.032755
123.975873
131.244659
128.787756
122.482777
102.882981
85.027814
61.614513
47.218800
31.616688
24.016500
18.416643
16.923547
16.046762
15.906692
17.059445
17.739534
18.568635
19.346476
19.878745
20.195842
20.379424
20.480752
21.741986
21.345615
21.341443
21.783710
21.622777
22.025704
21.661520
21.388531
22.074580
22.036433
21.761656
22.094846
21.448731
21.506548
21.521449
20.642877
21.528602
21.395683
##ZVALUE=305
0.384450
0.451803
0.415444
0.414848
0.409484
0.422597
0.314713
0.466704
0.461936
0.456572
0.562668
0.354648
0.433922
0.431538
0.653863
0.440478
0.556707
0.524521
0.502467
0.646710
0.642538
0.773668
0.645518
0.655651
0.879765
0.702739
0.891685
0.896454
0.928640
1.021624
1.362562
1.369715
1.583695
1.886487
3.197789
21.928549
62.151551
174.921751
318.321586
594.377518
840.397477
1015.943885
1015.943885
1015.943885
1015.943885
1015.943885
942.493677
618.150830
384.925008
166.439414
76.647997
23.886561
14.718771
17.903447
25.296807
42.179823
57.791471
80.582500
99.305511
117.896795
125.557780
124.447942
116.631985
99.356771
82.524419
61.228871
46.805739
31.774640
24.790764
19.675493
18.416643
17.924905
18.618703
19.122958
19.225478
19.951463
20.513535
20.482540
20.843744
21.392703
21.498799
22.111535
22.281408
22.431612
23.170710
23.182631
22.189617
22.723675
22.356510
22.242665
22.770762
21.770597
21.540523
21.492839
21.486878
21.048784
##ZVALUE=310
0.356436
0.309944
0.464916
0.468493
0.448823
0.409484
0.602603
0.382662
0.306964
0.382662
0.459552
0.454783
0.558496
0.435710
0.319481
0.461936
0.399947
0.506639
0.410676
0.535846
0.571609
0.542998
0.635982
0.513792
0.632405
0.831485
0.741482
0.822544
0.897646
0.965595
0.886917
1.168847
1.036525
1.120567
1.351833
1.552701
2.004504
10.323524
40.046573
136.691928
259.886384
503.965616
740.388036
1015.939713
1015.939713
1015.939713
1015.939713
1015.939713
1015.939713
774.288774
532.926917
274.085402
147.354603
48.120618
18.992424
13.453960
16.296506
24.783611
35.614967
53.855777
71.095824
93.756914
107.268691
119.031668
120.603442
112.316608
99.956989
81.070662
63.256621
44.669509
34.590960
26.628971
22.880435
20.639896
19.714832
20.011663
20.720959
20.834804
21.261573
21.400452
21.598935
22.216439
22.417903
22.534728
22.633672
23.441911
22.246838
23.337603
22.944808
22.897720
23.105741
22.814870
22.395849
22.190809
21.593571
21.656752
##ZVALUE=315
0.520945
0.474453
0.583529
0.541806
0.532866
0.590682
0.679493
0.483990
0.595450
0.535846
0.497699
0.627637
0.524521
0.431538
0.525713
0.508428
0.606775
0.667572
0.589490
0.637770
0.843406
0.739694
0.896454
0.749826
0.886917
0.993609
0.574589
1.039505
1.016855
0.975728
1.008511
1.031756
1.134872
1.315475
1.248717
1.317859
1.545548
1.806617
2.191663
5.075932
21.667480
101.706982
228.906870
496.890545
765.867829
1016.137004
1016.137004
1016.137004
1016.137004
1016.137004
1016.137004
886.710882
644.749999
357.702971
202.594995
75.591803
30.518770
12.934804
12.227893
16.781688
22.625923
35.472512
49.009919
69.486499
85.297823
106.034875
113.056898
115.777850
109.422803
94.613433
80.562830
61.933994
48.554540
35.838485
28.091669
23.132563
21.636486
21.502972
21.534562
22.083521
21.861792
22.386909
22.905469
23.027658
23.096800
23.237467
23.053885
23.269653
23.216605
23.466945
22.510886
22.353530
22.315979
22.370815
22.590756
22.908449
##ZVALUE=320
0.380874
0.122786
0.332594
0.341535
0.281930
0.210404
0.228882
0.491738
0.305772
0.370741
0.290871
0.456572
0.279546
0.505447
0.302792
0.457764
0.422597
0.432730
0.497699
0.508428
0.476837
0.591874
0.513792
0.602603
0.588894
0.494719
0.544786
0.542998
0.499487
0.802875
0.762939
0.843406
0.970960
1.133680
0.982881
1.134872
1.078844
1.361966
1.552701
1.544952
1.705885
2.150536
7.652640
48.252940
127.207637
336.056948
568.782687
941.743851
1015.944481
1015.944481
1015.944481
1015.944481
1015.944481
1015.944481
798.276663
466.127992
276.513696
117.326975
55.339932
17.703772
11.284947
12.000799
15.305877
21.714568
30.597448
48.538446
62.750578
83.290935
97.518563
109.645724
111.594796
106.007457
94.226003
75.152516
62.400699
46.708584
37.165880
28.235912
25.277734
22.864938
21.709800
22.521615
22.689700
22.926927
22.866726
22.864938
23.398995
23.604631
23.108721
23.237467
23.188591
23.195744
22.654533
22.622943
22.319555
22.597909
##ZVALUE=325
0.274777
0.412464
0.337958
0.135899
0.150800
0.244975
0.480413
0.230670
0.372529
0.301600
0.453591
0.405908
0.337958
0.364780
0.431538
0.344515
0.410676
0.416636
0.334978
0.497699
0.349879
0.419617
0.357628
0.499487
0.365973
0.594854
0.560880
0.506639
0.539422
0.599623
0.714660
0.595450
0.789762
0.700951
0.870824
0.763535
0.826716
1.090765
1.010895
1.123548
1.261830
1.414418
1.689792
1.721978
3.850460
22.419691
64.142942
183.612704
337.295532
661.681890
951.040983
1015.944481
1015.944481
1015.944481
1015.944481
1015.944481
786.384940
460.236669
272.017717
114.285946
53.145885
18.444657
11.592507
10.578632
11.878610
16.015768
21.670461
32.284856
45.205951
65.067410
79.979897
95.669627
104.081631
106.351972
101.098418
87.870955
75.251460
58.908463
46.518445
35.101771
29.242635
24.601817
23.514628
22.778511
22.247434
22.527575
22.776723
22.686720
22.620559
22.743940
22.759438
22.309422
22.075772
22.658706
22.260547
22.185445
##ZVALUE=330
0.180602
0.319481
0.205636
0.245571
0.166893
0.347495
0.226498
0.210404
0.386834
0.290871
0.188947
0.374913
0.239611
0.390410
0.441670
0.353456
0.199676
0.215769
0.416636
0.304580
0.364780
0.502467
0.499487
0.380874
0.342727
0.412464
0.444651
0.338554
0.249743
0.686646
0.478625
0.624657
0.596642
0.617504
0.574589
0.830889
0.771880
0.817776
0.870824
0.708699
0.951886
1.024604
1.016855
1.382828
1.423955
1.572967
2.392530
11.727810
38.965940
128.477812
248.242021
504.512787
769.644976
1015.943885
1015.943885
1015.943885
1015.943885
1015.943885
1008.747816
649.767518
400.567651
178.028941
87.418556
30.023456
14.508963
11.166930
11.111498
12.794733
15.938878
22.750497
31.511784
45.946836
60.235858
78.924894
91.195703
100.102425
100.968480
95.642805
86.731911
70.601702
57.905912
44.704676
35.951734
28.769970
25.670528
23.849607
22.845864
22.657514
22.136569
22.065639
21.965504
22.152662
21.957755
21.890998
21.894574
22.703409
##ZVALUE=335
0.205636
0.187755
0.219941
0.193715
0.217557
0.199676
0.110865
0.299811
0.448823
0.353456
0.182986
0.167489
0.283718
0.318885
0.348687
0.447631
0.357628
0.344515
0.318885
0.314713
0.373721
0.331998
0.356436
0.428557
0.434518
0.319481
0.541806
0.456572
0.491738
0.512600
0.519753
0.433922
0.450611
0.508428
0.514984
0.425577
0.520945
0.669956
0.718832
0.716448
0.795722
0.945926
1.058578
1.050830
1.219511
1.230836
1.335740
1.480579
1.907945
3.782511
26.847720
79.709888
215.651989
379.757881
689.339638
968.095660
1015.944481
1015.944481
1015.944481
1015.944481
1015.945077
862.834454
506.799817
297.393799
121.362805
55.080652
19.351840
11.929870
11.409521
12.054443
13.830662
16.899705
23.318529
30.967593
44.757724
56.827664
73.874593
85.466504
94.332695
96.321702
89.808702
81.342459
68.208575
57.933927
45.527816
37.082434
29.715896
26.471615
23.293495
22.480488
21.827817
21.654963
21.286607
21.116734
21.445751
21.707416
##ZVALUE=340
0.121593
0.176430
0.296831
0.263453
0.085831
0.048876
0.429749
0.237823
0.385642
0.152588
0.260472
0.345707
0.337958
0.174642
0.224710
0.269413
0.324845
0.312924
0.334978
0.331998
0.239611
0.300407
0.282526
0.394583
0.331998
0.337958
0.309944
0.398755
0.489950
0.439882
0.507832
0.377893
0.306964
0.389814
0.470877
0.570416
0.602603
0.664592
0.537634
0.651479
0.530481
0.811815
0.902414
0.734925
0.819564
0.983477
1.034737
1.123548
1.385808
1.433492
1.612902
2.492666
7.432699
41.299462
109.324455
280.905962
476.049781
806.449652
1015.908718
1015.908718
1015.908718
1015.908718
1015.908718
987.278819
705.009699
356.823802
191.842914
72.691441
29.342771
12.548566
11.723638
11.903644
12.338758
14.694929
17.164946
23.614764
30.388832
42.713881
55.162907
71.731806
81.994534
89.608431
90.556741
85.736513
79.105496
66.006780
56.058764
42.610765
35.792589
29.160976
25.267601
22.173524
21.328926
21.026731
20.833611
20.521879
##ZVALUE=345
0.238419
0.102520
0.218749
0.235438
0.157952
0.184774
0.014901
-0.044703
0.094771
0.130534
0.126958
0.241995
0.115633
0.252724
0.240803
0.231862
0.192523
0.364780
0.312924
0.262856
0.192523
0.423789
0.208616
0.313520
0.284910
0.305772
0.284910
0.213981
0.489950
0.359416
0.576973
0.446439
0.482798
0.456572
0.402927
0.473857
0.613928
0.507832
0.564456
0.669956
0.684857
0.556707
0.629425
0.664592
0.745654
0.779629
0.638962
0.984669
1.081824
1.095533
1.163483
1.401901
1.318455
1.873970
4.011989
28.438568
79.165697
213.720798
382.819772
689.198971
940.577984
1015.944481
1015.944481
1015.944481
1015.944481
904.312730
670.847893
391.727686
221.284628
89.601874
42.491555
16.315579
11.899471
11.666417
12.222528
12.660623
13.698936
16.631484
21.007657
30.025840
40.021539
54.529905
64.611435
75.918436
81.604719
84.670782
81.987977
73.958635
65.169930
53.240657
43.603778
33.867955
27.866960
23.291707
21.377802
19.887686
##ZVALUE=350
0.179410
0.303984
0.249743
0.144839
0.280738
0.222921
0.190735
0.350475
0.148416
0.136495
0.327826
0.329614
0.256896
0.199676
0.181794
0.356436
0.315905
0.279546
0.221729
0.254512
0.104904
0.262856
0.228882
0.242591
0.328422
0.417829
0.362992
0.276566
0.437498
0.387430
0.377893
0.343919
0.426769
0.405908
0.435710
0.384450
0.460744
0.363588
0.494719
0.675917
0.645518
0.542998
0.662804
0.681877
0.601411
0.749826
0.664592
0.740886
0.942945
1.038909
0.881553
0.904799
1.111627
1.223683
1.332760
1.586676
2.130866
12.748837
41.996837
131.296515
254.831910
529.350638
787.658691
1015.943885
1015.943885
1015.943885
1015.943885
1005.114913
773.843527
450.152755
276.412964
128.240585
61.311722
20.249486
12.206435
11.254549
11.149645
11.345744
11.986494
13.544559
16.091466
21.491647
27.192831
36.823750
45.926571
58.258772
67.845583
74.710846
77.364445
75.045824
69.505572
60.155988
50.426722
39.687753
32.196641
25.921464
##ZVALUE=355
0.308752
0.241995
0.283718
0.317693
0.186563
0.163913
0.113845
0.203848
0.132918
0.182986
0.242591
0.261664
0.303984
0.312924
0.314713
0.240803
0.274777
0.321865
0.292659
0.300407
0.314713
0.240803
0.251532
0.221729
0.228882
0.266433
0.387430
0.502467
0.367761
0.256896
0.389814
0.349879
0.399947
0.504851
0.432730
0.462532
0.408888
0.469685
0.452995
0.401735
0.424981
0.397563
0.441670
0.374913
0.461936
0.500679
0.626445
0.614524
0.705719
0.803471
0.839829
0.750422
1.011491
0.863671
1.044869
1.053810
1.146793
1.374483
1.609921
4.880428
17.635822
71.892738
150.658488
331.466794
549.717546
900.435448
1015.943885
1015.943885
1015.943885
1015.943885
960.342884
613.257885
382.141471
165.362954
77.880621
25.445819
13.023615
10.368824
10.533929
10.380745
11.083484
11.685491
12.637973
15.257597
18.296838
24.622679
31.141639
41.668415
50.203800
60.676932
66.416860
70.454478
69.793463
63.739419
56.754947
47.293901
##ZVALUE=360
0.434518
0.252724
0.337958
0.131726
0.314713
0.123978
0.187755
0.287890
0.340939
0.255704
0.321865
0.080466
0.321865
0.261664
0.237823
0.241995
0.222921
0.250936
0.334978
0.246763
0.383854
0.390410
0.208616
0.296831
0.348687
0.282526
0.324845
0.322461
0.321865
0.362992
0.257492
0.390410
0.238419
0.418425
0.417829
0.433922
0.412464
0.477433
0.282526
0.412464
0.360608
0.470877
0.451803
0.351667
0.522733
0.585914
0.573993
0.615716
0.775456
0.707507
0.564456
0.782609
0.803471
0.939965
0.907779
0.872612
1.096725
0.992417
1.208782
1.238585
1.440644
2.096891
13.791919
48.229694
146.135688
262.373686
489.937663
707.736611
995.340943
1015.944481
1015.944481
1015.944481
949.433446
726.047754
424.346924
252.094865
104.352832
46.309829
15.044808
10.295510
9.589791
9.754896
10.299683
10.155439
10.633469
11.298656
12.969971
15.370846
20.266771
26.013851
35.087466
43.347478
52.844882
58.378577
63.163638
63.327551
##ZVALUE=365
0.153780
0.222921
0.115633
0.224710
0.151992
0.074506
0.219941
0.171661
0.232458
0.163913
0.240803
0.080466
0.362992
0.363588
0.294447
0.243783
0.313520
0.079870
0.294447
0.242591
0.212789
0.222921
0.331998
0.295639
0.207424
0.332594
0.205636
0.347495
0.455976
0.237823
0.377893
0.274777
0.286698
0.412464
0.384450
0.331998
0.465512
0.538826
0.434518
0.430942
0.368953
0.311732
0.282526
0.415444
0.403523
0.489950
0.564456
0.648499
0.488758
0.439882
0.548959
0.477433
0.514984
0.546575
0.647902
0.766516
0.895858
0.724792
0.754595
0.903606
1.056790
1.223683
1.328588
1.610518
3.575683
24.025440
65.152645
165.980458
304.546952
556.938648
750.012994
969.154835
1015.943885
1015.943885
934.309959
675.398707
471.980572
253.786445
138.896704
51.567554
22.297502
9.959936
8.744597
8.450747
8.848906
9.036660
9.165406
9.293556
9.977818
11.122823
12.977719
17.320514
21.517873
30.042529
36.898851
45.408607
##ZVALUE=370
0.252724
0.110865
0.162721
0.199676
0.319481
0.117421
0.221729
0.026822
-0.008941
0.171661
0.087619
0.263453
0.157952
0.250936
0.117421
0.145435
0.181794
0.245571
0.286698
0.348687
0.321865
0.202656
0.275970
0.315905
0.264645
0.283718
0.282526
0.231862
0.305772
0.209808
0.283718
0.285506
0.260472
0.288486
0.278950
0.382662
0.467896
0.276566
0.208616
0.484586
0.504851
0.332594
0.246763
0.371933
0.444651
0.385642
0.500679
0.416636
0.413656
0.361800
0.416636
0.543594
0.540614
0.671744
0.487566
0.529885
0.745654
0.630617
0.662804
0.795722
0.689626
0.736713
0.952482
1.100898
1.199841
1.456738
1.912713
9.955764
37.764907
130.510926
249.282718
478.682518
695.160627
956.462622
1015.944481
1015.944481
1007.134914
789.822936
583.396554
323.498845
181.191564
70.869923
33.394694
13.155937
8.683801
8.051991
7.921457
8.245707
8.307695
8.426905
8.512735
9.311438
10.049939
12.301803
14.424920
19.942522
##ZVALUE=375
0.124574
0.095963
0.288486
0.097752
0.201464
0.066757
0.016689
0.120997
0.255704
0.191927
0.317693
0.296831
0.200868
0.185966
0.160933
0.280738
0.200868
0.399947
0.310540
0.186563
0.296831
0.101924
0.317693
0.272989
0.245571
0.239611
0.119805
0.197887
0.277758
0.105500
0.362992
0.156760
0.276566
0.434518
0.359416
0.265837
0.363588
0.192523
0.361800
0.391603
0.141859
0.229478
0.249743
0.329614
0.339746
0.360608
0.393987
0.337958
0.328422
0.376701
0.483990
0.347495
0.394583
0.445843
0.353456
0.593662
0.361800
0.587702
0.508428
0.714660
0.547767
0.727773
0.811815
0.852942
0.948906
1.013875
1.235604
1.512766
1.813769
13.508797
51.290393
156.900883
298.812985
558.895469
768.934488
1001.330614
1015.943885
1015.943885
1015.943885
877.277851
674.206614
405.653715
252.582431
121.578574
60.030818
20.465851
9.984970
7.503629
7.376671
7.462502
7.479787
7.614493
7.738471
8.022785
8.251667
9.055734
##ZVALUE=380
0.187755
0.097752
0.158548
0.187755
0.245571
0.302792
0.131726
0.244975
0.218749
0.164509
0.114441
0.058413
0.245571
0.121593
0.129938
0.222921
0.212789
0.232458
0.171661
0.282526
0.123978
0.213981
0.257492
0.324845
0.282526
0.231862
0.229478
0.225902
0.204444
0.169873
0.166893
0.154972
0.217557
0.213981
0.194907
0.459552
0.349879
0.398755
0.443459
0.244975
0.364780
0.161529
0.222921
0.432730
0.390410
0.457764
0.419617
0.354648
0.456572
0.381470
0.427961
0.398755
0.449419
0.422597
0.381470
0.521541
0.491738
0.487566
0.484586
0.615716
0.505447
0.613928
0.610948
0.675917
0.730753
0.736713
0.930429
0.835657
1.092553
1.137853
1.536608
2.784729
10.750890
53.076744
125.116706
296.316743
480.747819
752.130747
950.381756
1015.991569
1015.991569
909.304619
738.672018
512.220860
335.866809
162.779689
82.303882
29.216409
13.425946
7.027984
6.795526
6.663799
6.917715
6.764531
7.040501
7.205606
##ZVALUE=385
0.126958
0.170469
0.147820
0.135899
0.180602
0.026822
0.152588
0.133514
0.103712
0.218749
0.248551
0.304580
0.207424
0.122786
0.088811
-0.071526
0.150800
0.306964
0.024438
0.061989
-0.006557
0.301600
0.252724
0.122786
0.204444
0.042915
0.119805
0.244975
0.245571
0.155568
0.063777
0.312924
0.330806
0.265837
0.196695
0.253916
0.169873
0.279546
0.165701
0.284910
0.232458
0.083447
0.282526
0.213981
0.397563
0.260472
0.173450
0.296831
0.229478
0.304580
0.234842
0.361800
0.393987
0.433922
0.370741
0.241995
0.493526
0.411868
0.422597
0.570416
0.531673
0.481606
0.358820
0.547767
0.524521
0.703931
0.820756
0.871420
1.013875
1.061559
1.273751
1.314878
1.553893
1.835823
4.662871
29.186606
75.785518
192.159414
343.078971
604.130626
797.005892
976.635814
1015.943885
971.560478
843.529701
621.245503
440.901518
237.122774
133.262873
53.292513
22.032857
8.005500
6.349683
6.270409
6.008744
6.077886
##ZVALUE=390
0.243783
0.045896
0.045896
-0.016689
0.128746
0.082850
0.144839
0.142455
0.104904
0.024438
0.087619
-0.001788
0.009537
0.134706
0.201464
0.208616
0.144839
0.248551
0.271797
0.293851
0.176430
0.093579
0.080466
0.099540
0.231862
0.140667
0.111461
0.300407
0.313520
0.212789
0.237823
0.225902
0.141859
0.163913
0.142455
0.171661
0.256896
0.213981
0.165701
0.199676
0.177622
0.309944
0.221729
0.214577
0.296831
0.242591
0.251532
0.268817
0.294447
0.293851
0.225902
0.194907
0.376701
0.367761
0.363588
0.357628
0.266433
0.362992
0.399947
0.511408
0.622869
0.554919
0.455976
0.412464
0.464916
0.712872
0.669956
0.784993
0.819564
0.928640
1.020432
1.120567
1.171827
1.157522
1.422763
1.456738
2.413988
16.004443
51.035881
156.982541
296.274424
552.361012
763.020515
983.111858
1015.943885
1015.943885
996.992588
785.880685
602.431893
357.906818
204.256773
81.373453
37.373900
12.524724
6.817579
5.742908
##ZVALUE=395
0.136495
0.201464
-0.008941
0.142455
0.119805
0.049472
0.108480
0.086427
0.189543
0.234842
0.025630
0.237823
0.152588
0.165701
0.129938
0.150800
0.136495
0.115633
0.045896
0.186563
0.094771
0.091791
0.213981
0.197887
0.267625
0.195503
0.164509
0.152588
0.184774
0.095963
0.203848
0.152588
0.120997
0.136495
0.253916
0.172853
0.105500
0.221729
0.246763
0.288486
0.289679
0.251532
0.150800
0.364780
0.241995
0.387430
0.269413
0.214577
0.262856
0.232458
0.469685
0.387430
0.359416
0.401735
0.487566
0.458956
0.410676
0.442863
0.497699
0.465512
0.625849
0.493526
0.563860
0.509620
0.559688
0.771880
0.581741
0.715852
0.894666
0.934601
1.130700
1.055598
1.114607
1.148582
1.229644
1.212955
1.330972
1.415610
1.921654
10.037422
35.571456
128.705502
256.152749
509.190559
747.597814
1015.943885
1015.943885
1015.943885
1015.943885
1015.943885
833.457708
508.403778
315.073729
145.979524
67.327619
20.823479
##ZVALUE=400
0.029802
0.326633
0.063777
0.214577
0.109673
0.004768
0.234842
0.195503
0.177622
0.091791
0.072718
0.193715
0.274777
0.193715
0.096560
0.199676
0.171661
0.332594
0.218749
0.204444
0.177622
0.019670
0.156760
0.270605
0.077486
0.168681
0.191927
0.227690
0.154972
0.216961
0.170469
0.197887
0.179410
0.298619
0.082850
0.242591
0.238419
0.123978
0.175834
0.104904
0.293851
0.307560
0.173450
0.355840
0.301600
0.129938
0.313520
0.456572
0.405908
0.295639
0.288486
0.469685
0.396967
0.349879
0.270605
0.381470
0.254512
0.431538
0.288486
0.386834
0.505447
0.437498
0.464916
0.485778
0.557899
0.521541
0.710487
0.664592
0.921488
0.799894
1.058578
0.916719
0.977516
0.953674
1.092553
1.022816
1.056790
1.176596
1.225471
1.365542
1.332760
3.927946
15.260577
62.260628
137.790442
318.149924
522.315502
836.391449
1015.943885
1015.943885
1015.943885
1015.943885
964.829922
663.518906
442.816615
222.179890
##END
