##TITLE=QP0030
##FORMAT=SPECTACLE-ASCII V-1.2
##DATA TYPE=ULTRAVIOLET SPECTRUM
##SECOND TYPE=ULTRAVIOLET SPECTRUM
##DATE=01/21/18
##TIME=17:10:33
##SPECTROMETER/DATA SYSTEM=SPECTACLE
##XUNITS=NM EM
##YUNITS=ENERGY
##YFACTOR=1
##FIRSTX=220
##LASTX=410
##NPOINTS=96
##3DDATA=Equidistant
##ZUNITS=NM EX
##FIRSTZ=210
##LASTZ=400
##ZPOINTS=39
##XYDATA=(Y..Y)
##ZVALUE=210
1.476407
1.501441
1.089573
1.547933
1.616478
2.050996
1.975894
1.941919
1.714826
2.192855
1.493692
1.822710
1.775622
1.723766
1.826882
2.021790
2.292991
2.045631
2.371669
2.083778
2.491474
2.834797
2.046824
2.849698
2.744794
3.069639
2.887845
3.034472
3.542900
3.471971
3.699660
2.506971
3.335476
3.704429
3.007650
4.109740
4.060864
3.559589
4.054904
4.559755
5.083680
3.951788
4.674792
3.784895
3.946424
3.827810
5.703568
4.982948
4.872680
5.844831
5.157590
4.870892
4.760623
4.760623
4.598498
5.568862
4.932880
4.842877
5.792975
5.994439
5.653501
5.546808
6.063581
5.789995
5.770922
5.794764
6.735921
7.360578
8.369684
9.541512
10.741949
13.227463
14.529824
16.007423
18.476844
18.455982
17.841458
18.522739
19.385815
16.199946
14.456511
14.016628
11.658669
10.406971
9.351969
8.464456
6.384850
5.813837
5.996823
5.896688
5.998611
5.714893
5.775690
5.708933
6.129742
6.754994
##ZVALUE=215
3.424883
3.913641
4.145503
3.308654
3.408790
3.286600
3.298521
3.963709
3.791451
4.141927
3.866553
2.984405
3.591776
2.270937
2.334714
2.628565
2.023578
2.243519
2.243519
2.350807
3.024936
2.799630
3.101826
2.952814
3.621578
2.909899
2.836585
3.483891
4.078746
3.348589
3.509521
3.565550
4.092455
3.825426
3.550649
3.478527
4.217625
4.030466
4.468560
4.456639
4.422665
4.313588
4.566908
4.154444
4.281998
5.083680
4.489422
4.557967
4.875660
5.028844
4.256964
5.563498
5.172491
5.607605
4.830956
5.615950
4.870892
5.678535
5.866885
6.220937
6.951690
6.134510
5.973577
5.486608
6.555915
6.518960
6.840825
7.234812
7.967949
9.666681
11.380911
13.505816
15.095472
14.073849
17.978549
18.551946
16.633868
17.848611
15.707612
16.443729
14.386773
12.932420
11.377931
11.291504
9.928942
8.186698
8.009672
8.087754
6.606579
6.446838
5.983710
5.280972
6.864667
6.494522
6.619692
6.501675
##ZVALUE=220
12.969971
15.032887
15.931726
15.555620
15.462637
13.732910
10.252595
8.218884
8.749962
8.487701
9.653568
10.140538
9.690523
9.567738
7.159710
6.339550
4.821420
3.402829
3.020763
2.486706
3.301501
3.324747
3.019571
2.715588
3.558993
3.045797
2.903938
3.735423
3.514886
4.076958
3.950000
4.199743
3.929734
3.983974
4.593730
4.046559
4.535913
4.754663
5.108714
5.028844
4.476905
5.184412
4.964471
5.537868
5.501509
4.891753
5.218983
5.657673
5.501509
6.185770
6.257892
6.704926
5.619526
4.928708
6.242990
7.046461
6.576777
6.686449
5.983710
7.703900
6.490946
6.560683
7.491708
7.124543
7.117987
7.386804
8.188486
10.059476
9.857416
10.587573
13.804436
14.118552
16.213655
15.893579
18.640757
18.886924
19.715428
18.235445
18.134713
17.030835
17.265677
15.041828
14.006495
12.745857
11.862516
10.031462
8.567572
9.100437
7.575750
8.099675
8.931756
7.878542
7.855892
8.139610
7.153749
8.230805
##ZVALUE=225
24.049878
23.678541
31.671524
44.267774
51.440001
55.715442
52.579641
45.339465
35.010576
27.187467
22.897720
21.718740
20.629764
23.479462
24.378896
23.407936
20.296574
15.885830
12.116432
7.281899
6.139874
4.311800
3.915429
2.861619
3.708601
4.335642
4.390478
3.355742
4.337430
4.082918
4.998446
4.917979
4.663467
5.060434
5.609989
4.784465
5.115867
5.451441
5.633831
4.830956
6.139874
6.617904
5.970597
6.219745
6.087422
6.378889
5.752444
6.470680
6.873608
5.911589
6.958842
6.507635
7.029772
7.387996
6.562471
6.850958
6.641746
7.105470
7.715821
7.919669
7.599592
7.940531
7.949471
7.872581
9.453893
9.533763
9.969473
10.713935
11.015534
12.253523
14.070868
15.492439
17.277598
17.205477
18.675923
17.163754
17.848611
18.506646
17.471910
16.603470
16.459823
15.499592
14.267564
14.430881
13.146996
11.790991
11.904836
10.645986
10.733604
12.093782
11.124611
10.208488
10.835528
10.015965
10.217428
10.460615
##ZVALUE=230
20.740628
24.339557
42.667985
70.567727
93.029737
127.742887
144.331455
147.675872
136.663914
108.586550
86.337924
57.522655
44.732690
40.856600
44.006705
48.459768
47.880411
46.880841
42.831898
36.092997
27.815700
17.726421
10.878444
8.264780
4.409552
4.422665
4.410744
4.819632
4.917979
4.993677
5.458593
5.475879
5.760789
5.218983
5.464554
6.287694
5.076528
6.359816
5.769730
6.985664
6.119609
5.363822
6.397963
6.856918
6.349683
7.098913
6.926656
6.605983
7.283688
6.875992
7.131696
8.022785
7.763505
7.364750
8.395910
7.785559
8.303523
9.236932
8.946657
10.065436
9.993911
9.336472
10.045767
10.604858
10.706782
11.720657
11.997819
12.531877
15.829802
15.162826
17.996430
18.748641
20.565987
22.541881
23.324490
23.546815
25.752783
23.766756
24.304986
23.566484
21.493435
22.259951
20.545721
18.951893
19.340515
18.951893
18.657446
18.424988
18.714666
17.376542
17.312765
17.781854
17.715693
16.335845
15.599728
17.594695
##ZVALUE=235
9.145737
10.803938
28.127432
52.642822
100.570917
139.121413
207.202435
248.637795
294.661522
293.665528
259.544849
218.952894
162.553787
113.737583
88.898540
71.681738
67.178607
77.101588
82.092881
85.549951
78.003407
65.197945
53.123832
39.490461
22.108555
15.397668
9.907484
7.237792
5.633831
5.978942
5.567670
6.532669
5.955696
5.573630
6.006956
5.955696
7.493496
6.546974
6.187558
6.601810
6.503463
7.638931
7.403493
7.501841
7.588863
7.566810
8.312464
8.274913
7.572770
8.513927
8.682609
8.421540
8.762479
8.677840
8.173585
11.300445
10.260940
9.793639
9.606481
12.083650
12.275577
11.876822
12.684464
13.146996
13.790727
14.954805
15.142560
16.197562
17.302632
20.448565
21.197796
25.427938
27.398467
27.643442
27.737617
30.036569
30.134916
31.043887
29.152632
30.251741
28.846860
29.683709
25.907755
27.183890
27.109981
23.526549
25.438666
26.727915
25.590658
24.567842
25.076866
25.316477
25.524497
25.413632
25.390983
24.237633
##ZVALUE=240
1.215935
1.908541
5.623698
14.813542
41.206479
78.638792
150.583982
225.566626
340.252519
403.953791
461.456776
457.066894
431.741476
348.535776
274.082422
180.833936
133.097768
100.431442
95.714927
101.110935
111.841559
117.367506
112.946630
104.565620
83.255768
64.427853
45.737624
32.159686
19.529462
12.100935
8.387566
7.214546
7.170439
5.540848
6.958842
6.374717
6.058812
7.413626
6.673932
6.123781
7.614493
7.526875
7.188916
6.719828
6.532669
6.951690
8.096695
7.761717
7.959604
8.144975
8.357763
8.322597
8.495450
9.467602
10.087490
10.804534
10.534525
11.691451
11.407733
11.730790
11.664629
13.054609
14.599562
14.415979
14.999509
16.505718
17.200708
19.314885
20.098686
22.118688
25.094748
26.861429
27.933717
28.604865
32.086968
33.091903
33.546686
32.508969
34.429431
34.821630
34.096837
33.066869
34.656525
32.729506
33.097863
31.252503
32.642484
32.997727
33.178926
30.859709
30.307770
31.965971
31.675696
31.411648
31.615496
32.065511
##ZVALUE=245
1.319647
1.465678
1.364946
1.802444
3.568530
10.162592
35.406947
73.722005
163.194537
250.273943
386.065841
471.936464
538.103580
573.971868
544.784665
450.990796
376.497507
253.763795
181.778669
119.479895
100.966692
100.119710
116.707683
126.161575
136.561990
132.357478
113.617778
95.736980
72.182417
52.269697
39.427876
22.355914
13.917685
9.354949
6.800890
6.886721
6.560683
6.544590
6.089807
6.453991
6.276965
6.458759
6.021857
6.229877
6.684661
6.280541
7.512569
7.248521
7.291436
7.075667
6.896853
7.871985
7.622838
8.138418
9.156466
7.947683
8.774996
9.582639
10.580420
10.584593
11.394620
11.588931
12.229681
13.080835
13.477802
15.769601
16.084909
16.690493
19.435883
18.346906
21.690726
24.726987
26.593804
29.670000
28.823614
30.949712
30.404925
29.748678
33.075809
32.504797
32.342672
32.616854
33.294559
32.313466
31.998754
31.307936
31.902790
31.813979
33.137798
34.243464
32.028556
31.804442
32.048821
31.640530
33.443570
32.449961
##ZVALUE=250
0.891685
0.825524
0.970960
1.413822
1.233816
1.268983
1.764894
5.898476
25.733709
56.570768
135.543942
218.771696
329.568982
472.658873
559.857488
639.632940
630.618930
574.529767
481.115580
339.859724
237.244964
156.971812
104.432702
96.358657
107.449889
123.303533
138.687491
141.443610
136.206746
124.859810
102.438927
80.745816
58.111548
35.145879
22.739768
12.366772
8.629560
7.034540
6.130934
5.378723
6.424785
5.466938
5.916953
6.009936
5.408525
5.895495
6.267428
6.124973
6.988645
6.988645
7.026792
7.155538
6.851554
6.948709
7.848740
7.876754
7.628798
7.618666
8.694530
8.797646
9.010434
9.723902
10.402799
12.258887
12.467504
12.768507
14.152527
15.446544
16.751885
17.181635
18.646717
21.005869
21.458864
25.802851
25.609732
25.918484
27.006865
28.340816
27.405620
29.748678
28.964877
29.147863
28.809905
30.161738
29.288530
29.440522
30.993819
29.793978
31.736493
30.542612
30.851960
30.552745
30.394793
30.686855
31.462908
30.904412
##ZVALUE=255
0.654459
0.720620
0.932813
0.811815
0.814795
1.262426
1.232624
1.495481
1.796484
2.980828
15.163422
37.826896
80.532432
181.832910
287.929773
458.436608
573.036671
688.667893
734.685659
696.892738
602.635741
480.048656
307.484865
200.046897
114.136934
91.321468
90.000629
103.048682
129.115582
142.276883
149.022937
146.657825
132.358670
106.262565
84.035993
54.226518
37.256479
20.768642
13.789535
7.613897
6.181598
5.609989
5.997419
5.871654
5.492568
5.977750
6.163716
6.019473
5.678535
6.663799
6.750822
6.437898
6.160736
6.630421
6.146431
7.020831
6.820560
6.775856
7.317662
8.585453
8.603930
8.302927
9.464622
9.853840
10.547638
11.578798
11.554956
12.132525
13.386607
15.627742
16.933680
18.953681
20.562410
21.507740
23.898482
23.270845
24.454594
24.647713
24.185777
25.848746
24.637580
26.109815
26.528835
26.342869
27.049780
28.176904
27.962923
27.996898
28.115511
28.995872
28.422475
29.109716
29.159784
28.672814
28.711557
30.122995
##ZVALUE=260
0.924468
0.970960
0.945926
0.984669
0.824928
1.114607
1.143813
1.121759
1.114607
1.069903
1.337528
1.942515
5.515814
24.442673
55.760741
142.361522
238.536596
408.135653
547.404885
714.144707
806.400776
815.005898
726.282597
593.475699
398.345590
271.599889
156.740546
103.771687
78.762770
83.694458
102.326870
130.161643
145.136714
153.340697
149.299502
129.835606
113.437772
81.227422
58.315992
35.468936
24.238825
12.535453
8.478761
6.958842
6.230474
5.958676
5.683899
6.753802
5.665421
6.227493
6.507635
5.904436
6.575584
7.294416
7.328987
6.626844
7.054806
7.407665
7.858872
7.729530
8.038878
7.766485
8.902550
9.713769
9.846687
10.642409
10.686517
12.529492
13.755560
15.023947
16.327500
17.555952
18.019676
20.337701
21.209717
21.627545
21.985769
22.458434
21.660924
24.278760
23.790598
23.250580
24.987459
24.681687
24.863482
25.110841
25.200844
26.162863
26.349425
26.136637
25.857687
27.127862
27.210712
25.905967
27.204752
27.329922
##ZVALUE=265
0.921488
0.826716
0.761747
0.967979
0.743866
0.818968
0.710487
0.928640
1.020432
0.882745
1.033545
1.125932
0.893474
1.807809
3.208518
15.381575
40.157437
105.083585
196.772814
376.262665
547.420979
714.403987
880.620480
923.549533
849.506855
735.445023
536.862016
375.200510
205.656886
128.302574
78.070760
68.869591
83.057880
114.728808
133.256912
154.129863
158.938766
151.846409
135.478973
108.669996
85.578561
55.896640
37.058592
22.113919
13.411641
8.183718
7.244945
6.878972
6.167889
6.729960
6.295443
6.151795
6.382465
7.121563
7.291436
7.645488
7.601976
7.761717
7.665753
8.217692
8.633733
8.544922
8.822680
9.021759
10.040998
10.379553
11.403561
11.699796
12.586713
13.467669
15.193820
16.893744
17.836690
19.282699
20.635724
21.403432
20.813942
21.477938
22.047758
21.367669
22.760630
22.908449
23.808479
24.064779
23.755431
24.139881
23.463964
24.420619
23.836493
23.761988
25.487542
25.523901
25.941730
25.931597
24.941564
25.001764
##ZVALUE=270
0.769496
0.679493
0.685453
0.702739
0.757575
0.709891
0.844598
0.999570
0.836849
0.751615
0.693798
1.058578
1.129508
1.237988
1.368523
1.060963
1.751781
6.237626
20.472407
70.893764
147.303939
317.439437
490.328670
730.051994
899.218917
1007.779837
996.769667
865.153670
725.113750
495.663881
331.347585
171.641707
99.203587
61.645508
62.157512
87.040663
109.584928
137.103796
152.304769
158.456564
154.944658
134.886503
113.735795
81.815720
60.799718
37.199855
24.120808
14.466643
9.935498
7.213950
6.946921
6.651878
7.517934
7.181764
7.389784
7.484555
7.634759
7.520914
8.097887
8.663535
8.131862
8.257627
9.044409
9.653568
9.824634
10.733604
10.819435
11.642575
12.723804
12.545586
13.588667
16.137958
16.620755
17.905831
18.198490
18.917918
19.219518
19.676685
20.710826
20.602942
20.408630
20.646453
21.503568
21.428466
22.567511
22.556782
22.598505
22.486448
23.105741
23.829937
22.938848
23.229718
22.988915
22.566915
23.536682
23.659468
##ZVALUE=275
0.544786
0.452995
0.571609
0.573993
0.637770
0.599623
0.582933
0.549555
0.869632
0.808835
0.586510
0.760555
0.602603
0.802875
0.872612
0.813603
0.860691
0.883937
1.147985
3.462434
12.562871
39.586425
125.252604
237.443447
450.911522
632.900000
856.488943
992.317796
1015.815735
1006.153822
912.220478
656.688809
463.498831
239.172578
138.443708
66.780448
49.479604
59.974790
80.942512
110.448003
132.318735
152.601600
157.772899
149.859786
136.068463
108.674765
86.505413
59.110522
42.336583
24.830699
16.379952
10.218620
8.894801
7.311702
7.342696
7.472634
7.597804
7.848740
8.340478
8.398890
8.984804
8.975863
8.905530
10.119677
10.089874
10.201931
10.910630
11.273623
12.425780
13.362765
13.940930
14.197826
16.045570
16.913414
17.825961
18.198490
18.155575
18.386841
19.788742
19.552708
18.979907
20.603538
19.695759
20.826459
20.759702
20.943880
20.481944
21.432638
20.551682
22.154450
21.530986
21.994710
21.820664
22.425652
22.064447
22.804737
##ZVALUE=280
0.620484
0.366569
0.594854
0.458956
0.560880
0.715852
0.644922
0.640750
0.578761
0.846982
0.740886
0.715852
0.930429
0.796914
0.919700
0.849962
0.762939
0.767708
0.923872
1.205802
1.494884
1.852512
8.418560
29.235482
98.676682
184.792876
357.046723
529.330969
767.105818
924.711823
1015.943885
1015.943885
931.404829
710.240006
527.103543
296.007395
176.186562
80.600977
48.977733
42.250752
55.666566
82.188845
106.041431
132.827759
146.409869
153.290629
147.731900
130.547881
111.398697
81.200004
61.694980
38.128495
26.966929
15.574694
10.996461
9.220839
8.199811
7.965565
8.448958
8.942485
8.774996
9.265542
10.334849
10.460615
10.451674
11.357665
11.673570
12.262464
12.972951
13.595819
13.463497
15.235543
16.338825
17.440915
17.305613
17.870665
18.417835
19.044876
18.988848
19.553900
19.623637
19.537807
20.964742
20.343661
20.115972
20.690560
20.216703
21.274686
20.750761
22.033453
21.650791
20.929575
21.308661
20.598769
21.092892
21.014810
##ZVALUE=285
0.426769
0.486970
0.479817
0.636578
0.602603
0.595450
0.639558
0.549555
0.779629
0.592470
0.768900
0.609756
0.687838
0.751615
0.773668
0.640750
0.726581
0.839829
0.898838
0.987649
1.014471
1.375675
1.196861
1.679659
3.714561
14.064908
51.553845
114.862919
261.166692
417.180657
655.467510
844.041705
1015.943885
1015.943885
1000.086665
869.645476
623.809695
432.083607
232.559443
133.248568
58.157444
35.372972
37.637949
51.446557
78.383684
100.200772
125.716925
140.349865
149.264932
147.251487
129.798651
112.484694
83.263516
62.542558
41.237473
28.121471
16.607642
12.440681
9.989738
9.654760
9.152889
9.654760
9.958744
11.043549
10.691881
11.984706
11.697412
12.758970
13.471842
14.167428
14.696717
15.212893
16.408563
17.185807
17.476678
17.823577
18.245578
18.385649
18.791556
19.239783
20.048618
19.929409
19.639730
20.440817
20.950437
20.452738
21.180511
19.999743
20.762682
20.594001
20.606518
20.871758
20.875931
20.567775
20.479560
20.507574
##ZVALUE=290
0.470877
0.396967
0.562668
0.621676
0.663996
0.497699
0.647902
0.596642
0.610948
0.464916
0.577569
0.537634
0.669956
0.601411
0.371933
0.609756
0.672936
0.794530
0.771880
0.769496
0.777841
0.836849
0.996590
1.059771
1.523495
1.484752
1.847744
5.898476
30.115843
72.307587
181.891918
319.985747
571.625829
786.936879
1007.080674
1015.946865
1015.946865
982.479453
742.836595
554.576516
322.216749
187.631845
80.343485
39.833784
25.308728
31.932592
50.970912
69.139600
96.531510
116.023421
137.238503
143.831968
141.717792
129.697919
107.674003
85.567832
58.247447
41.729808
26.882887
19.415617
13.653636
11.857748
10.793805
10.987520
11.145473
11.438727
12.367964
12.905598
13.896823
13.958812
15.566945
15.954971
16.900897
17.156601
17.805696
18.008947
18.612742
19.108653
19.173622
19.262433
19.557476
19.996762
20.433664
21.487474
20.443797
20.468831
20.315647
21.154881
21.066666
20.628572
20.544529
20.300746
20.271540
20.305514
20.922422
19.693971
##ZVALUE=295
0.536442
0.578761
0.538826
0.653863
0.670552
0.493526
0.519753
0.534654
0.581741
0.488758
0.563860
0.752807
0.591874
0.534654
0.627637
0.569820
0.809431
0.639558
0.901818
0.961423
0.835657
0.779629
0.989437
1.167655
0.993609
1.079440
1.325607
1.381636
1.361966
2.803802
9.688735
44.060946
104.521513
262.292624
435.895920
707.045794
903.107524
1016.037464
1016.037464
1016.037464
884.233713
628.565550
437.697768
229.925513
125.288963
47.333837
24.240613
21.677613
29.808879
48.586726
66.331625
94.146729
110.778809
131.325722
138.298869
135.244727
124.794841
103.310943
84.015727
58.024526
42.960644
27.674437
20.343661
14.939904
12.726784
12.063980
12.643933
13.366938
14.239550
14.293790
15.112758
16.194582
16.805530
17.837882
17.914772
18.550754
18.451810
19.059777
19.656420
20.261407
20.290613
20.925999
20.613670
20.408630
21.382570
21.335483
20.964742
19.970536
21.103621
21.391511
21.058917
21.000504
20.997524
20.592809
20.212531
20.219684
##ZVALUE=300
0.413656
0.433922
0.375509
0.426769
0.539422
0.463724
0.489950
0.410676
0.499487
0.483990
0.383854
0.589490
0.691414
0.594854
0.564456
0.623465
0.591874
0.543594
0.584722
0.561476
0.701547
0.979900
0.708699
1.017451
0.895858
0.910759
1.130700
0.926852
1.272559
1.332760
1.490712
1.758933
6.154776
23.024678
85.475445
176.553726
377.252698
584.139824
881.015658
1015.944481
1015.944481
1015.944481
999.540687
818.711519
534.262657
346.107483
171.889663
90.169907
34.423470
18.650889
19.184947
26.441813
43.142438
60.201883
84.796548
103.371739
125.082731
131.494999
129.780769
121.607780
103.621483
84.101558
61.046481
46.009421
29.558539
22.449493
16.647577
15.396476
14.086962
14.701486
15.929937
16.737580
17.067790
17.458797
18.441677
18.622875
18.870831
19.307733
19.609928
20.316839
20.974874
20.873547
21.063685
21.404624
21.068454
21.708608
21.622777
21.445751
21.018982
21.440983
21.423697
20.629764
20.120740
20.445585
21.037459
20.894408
##ZVALUE=305
0.375509
0.280738
0.362992
0.320673
0.192523
0.374913
0.471473
0.475645
0.268817
0.552535
0.521541
0.362992
0.331998
0.601411
0.485778
0.573993
0.467896
0.413656
0.312924
0.558496
0.613928
0.566840
0.647902
0.695586
0.699759
0.607967
0.622869
0.814795
0.860691
0.948906
1.018643
1.160502
1.299977
1.570582
2.864003
15.332699
47.146678
140.580535
260.917544
499.470830
716.011524
986.641645
1015.943885
1015.943885
1015.943885
905.152559
698.219538
422.723889
261.269808
119.990706
59.550405
22.126436
14.629960
17.622709
25.349855
41.211843
59.150457
81.865788
99.991560
117.961764
125.596523
123.925805
117.432475
99.789500
82.188845
59.142709
44.133663
29.954910
23.368001
18.367767
16.902685
16.437769
17.023683
17.556548
18.059611
18.924475
19.327998
19.556880
19.583702
20.616651
21.124482
21.332502
21.553636
22.313595
21.839738
21.821856
22.184849
21.915436
21.335483
21.502972
21.904707
21.473765
20.729899
20.635724
20.722747
21.031499
##ZVALUE=310
0.229478
0.258684
0.384450
0.304580
0.301600
0.224710
0.443459
0.394583
0.261664
0.500679
0.515580
0.429749
0.463724
0.388622
0.411868
0.408888
0.422597
0.338554
0.471473
0.569820
0.429749
0.500679
0.673532
0.563860
0.712872
0.759959
0.635982
0.644922
0.854731
0.914931
0.967979
0.858903
1.098514
1.280904
0.896454
1.408458
1.796484
5.140901
28.599501
72.963834
193.530917
347.128510
622.138977
845.840573
1015.944481
1015.944481
1015.944481
1015.944481
852.077603
620.929599
351.132751
205.919743
85.932612
39.289594
14.946461
12.429953
16.727448
23.072958
36.616921
50.241947
73.646903
90.435743
108.496547
117.444992
119.327903
113.445520
98.852515
81.635714
61.457753
45.001507
32.150745
26.715994
21.081567
19.163489
18.872619
18.996596
18.802881
19.909739
20.379424
20.533800
21.160841
21.041632
22.016764
21.550655
22.746921
22.000670
22.553802
23.122430
22.343993
22.463799
21.809936
22.463799
21.801591
21.544695
20.935535
21.641850
##ZVALUE=315
0.304580
0.438690
0.296831
0.209808
0.272989
0.368953
0.325441
0.442863
0.347495
0.263453
0.420809
0.402927
0.486970
0.378489
0.551939
0.451803
0.277758
0.457764
0.424981
0.637770
0.470877
0.521541
0.510812
0.419617
0.707507
0.707507
0.527501
0.764728
0.738502
0.718832
0.772476
0.899434
0.898838
0.938773
1.062751
0.909567
1.176596
1.243949
1.515746
3.022552
11.701584
51.987767
120.175481
284.516811
480.068922
801.749825
1000.363827
1015.943885
1015.943885
1015.943885
1005.868912
724.592805
503.879786
261.476636
137.655735
48.914552
20.769835
11.383891
11.561513
16.391873
21.971464
35.331845
48.501492
69.768429
84.638596
105.329752
112.145543
115.476847
110.058784
94.247460
79.573989
60.992837
47.780871
33.661723
27.428865
22.265911
20.807981
19.791722
20.380616
21.136999
21.270514
21.408796
22.033453
22.041798
22.627711
22.270679
22.808909
22.746921
23.185611
22.647977
22.444725
22.283792
21.910667
21.989942
21.757483
21.369457
##ZVALUE=320
0.298619
0.232458
0.367761
0.182986
0.313520
0.345707
0.258684
0.455976
0.479817
0.396967
0.540614
0.060797
0.313520
0.509620
0.410676
0.398755
0.375509
0.455976
0.320673
0.466704
0.474453
0.398755
0.396967
0.538826
0.492930
0.541806
0.648499
0.576973
0.717640
0.695586
0.865459
0.818968
0.625849
0.689626
0.889897
0.902414
1.037717
0.956655
1.038909
1.207590
1.296997
1.888871
5.068779
29.249787
75.313449
207.936764
365.076661
632.641912
861.315727
1015.944481
1015.944481
1015.944481
1015.944481
844.722986
607.614517
335.272551
185.413957
72.986484
33.402443
13.040900
10.615587
11.908412
14.959574
21.229982
30.227900
48.164725
62.964559
83.752871
97.814798
109.872818
111.765862
104.859471
94.634891
75.898767
60.989857
44.437647
36.082864
28.340816
24.298429
22.078753
21.484494
21.711588
22.275448
22.288561
22.729635
22.516847
22.730827
22.644997
22.361875
22.329688
22.733808
22.219419
21.903515
21.888614
21.923780
21.777749
##ZVALUE=325
0.317693
0.333786
0.291467
0.339746
0.109673
0.331998
0.297427
0.475645
0.265837
0.254512
0.319481
0.405908
0.423789
0.322461
0.230670
0.651479
0.404716
0.322461
0.396967
0.478625
0.435710
0.318885
0.403523
0.596642
0.626445
0.605583
0.491738
0.497699
0.642538
0.477433
0.713468
0.655651
0.674725
0.792742
0.780821
0.721812
0.614524
0.918508
0.953674
1.055598
1.016855
1.154542
1.385808
1.708865
2.974868
17.674565
49.838424
139.829516
269.361734
546.146631
801.372528
1015.939713
1015.939713
1015.939713
1015.939713
1004.033685
772.732496
463.221669
272.143483
115.192533
53.462982
17.774701
11.089444
10.722876
11.854768
15.294552
21.101832
31.555891
45.129657
64.736605
79.635978
95.936656
103.025436
106.032491
100.247860
87.758899
74.909925
58.303475
46.669841
34.477711
29.429793
24.242997
22.244453
22.137761
22.070408
22.695661
22.588968
22.268891
22.329688
22.404790
22.151470
22.151470
22.016764
21.220446
21.791458
21.545887
##ZVALUE=330
0.328422
0.315905
0.108480
0.373721
0.218749
0.275970
0.309944
0.169873
0.209808
0.245571
0.171661
0.255704
0.254512
0.287890
0.395775
0.283718
0.370741
0.285506
0.375509
0.237823
0.379682
0.372529
0.210404
0.410676
0.386834
0.479817
0.404716
0.472665
0.469685
0.564456
0.513792
0.632405
0.575781
0.578761
0.721812
0.762939
0.651479
0.808835
0.750422
0.870824
0.903606
0.949502
0.891685
1.146793
1.178980
1.499653
1.812577
7.911921
25.359988
90.187788
183.237791
399.200916
618.459582
960.193872
1015.913486
1015.913486
1015.913486
1015.913486
914.656520
591.430664
372.336507
168.480873
82.518458
28.753877
13.711452
10.531545
10.614991
12.597442
15.271902
23.025870
31.137466
46.394467
60.709715
80.295801
91.323853
99.116564
101.183653
94.749928
85.397959
69.381595
56.119561
42.774677
36.011934
29.355884
25.537610
23.134947
22.609830
22.224784
22.138953
21.855831
21.391511
21.658540
21.662712
21.804571
21.359921
21.378994
##ZVALUE=335
0.281930
0.282526
0.167489
0.152588
0.293851
0.265837
0.168681
0.268817
0.202656
0.317693
0.408888
0.318885
0.159740
0.385642
0.319481
0.325441
0.362992
0.397563
0.448823
0.349879
0.281930
0.353456
0.334978
0.426769
0.386834
0.347495
0.458956
0.440478
0.479817
0.540614
0.532866
0.509620
0.588894
0.681877
0.629425
0.690818
0.529885
0.684857
0.771880
0.735521
0.696778
0.659823
0.617504
0.993609
0.976920
0.953674
1.142621
1.543760
1.540780
3.428459
12.468696
54.801702
124.845505
296.851993
501.616001
826.542974
1015.943885
1015.943885
1015.943885
1015.943885
923.739672
618.773699
413.380861
213.369727
110.471845
38.444996
17.496943
11.058450
10.841489
11.645555
13.047457
16.965866
21.668673
32.546520
43.427944
60.551763
73.766708
86.672902
94.299912
95.157623
91.381669
79.797506
68.770647
55.528879
45.269728
35.496950
29.960871
25.226474
23.049712
21.879673
21.559000
21.290779
21.037459
20.834804
21.138787
21.147728
##ZVALUE=340
0.284910
0.182986
0.324845
0.222921
0.263453
0.238419
0.367761
0.259876
0.437498
0.376701
0.365973
0.277758
0.332594
0.244975
0.267625
0.170469
0.299811
0.128746
0.294447
0.357628
0.272989
0.192523
0.398755
0.402927
0.409484
0.369549
0.490546
0.462532
0.374913
0.386834
0.485778
0.364780
0.496507
0.539422
0.638962
0.574589
0.555515
0.579953
0.558496
0.604987
0.665784
0.707507
0.774860
0.746846
0.806451
0.839829
0.874996
1.166463
1.179576
1.207590
1.548529
2.196431
6.564856
32.941699
85.737705
231.965780
409.915447
701.351762
938.651562
1015.943885
1015.943885
1015.943885
1000.766754
740.762949
517.576933
264.625549
142.738819
56.878924
24.557710
11.940598
10.993481
11.650920
12.050867
14.351606
16.960502
23.438931
30.521750
43.791533
56.063533
72.104931
82.957745
90.357661
91.340542
85.996985
79.048872
65.855980
55.535436
43.152571
35.716891
28.556585
24.710894
21.593571
20.594597
20.007491
19.917488
19.947886
##ZVALUE=345
0.308752
0.192523
0.223517
0.258684
0.363588
0.266433
0.149608
0.281930
0.166893
0.137687
0.314713
0.235438
0.332594
0.092983
0.256896
0.332594
0.229478
0.232458
0.211596
0.230670
0.237823
0.291467
0.265837
0.448823
0.267625
0.271797
0.257492
0.275970
0.315905
0.431538
0.416636
0.395775
0.502467
0.353456
0.370741
0.579953
0.448823
0.495911
0.599623
0.580549
0.626445
0.603795
0.592470
0.692606
0.669956
0.733733
0.763535
0.802875
0.720620
0.944734
0.976920
1.150966
1.276731
1.409650
2.977848
17.426610
49.583912
143.401027
276.380777
535.967946
763.882995
1015.944481
1015.944481
1015.944481
1015.944481
872.816443
637.879968
370.626450
207.945704
80.508590
36.626458
14.763474
11.812449
11.293888
11.527538
12.597442
13.778806
16.435981
20.744801
30.155778
39.362907
54.126978
64.668655
75.299740
81.524849
84.407926
81.900954
73.780417
65.527558
53.866506
43.861866
33.516884
27.795434
23.255944
21.310449
19.668937
##ZVALUE=350
0.152588
0.132918
0.312924
0.357628
0.347495
0.226498
0.082850
0.289679
0.266433
0.251532
0.293851
0.244975
0.329614
0.235438
0.204444
0.189543
0.301600
0.298619
0.335574
0.261664
0.475645
0.372529
0.393987
0.389814
0.315905
0.325441
0.309944
0.360608
0.291467
0.449419
0.271797
0.409484
0.381470
0.395775
0.586510
0.356436
0.464916
0.395775
0.439882
0.620484
0.642538
0.553727
0.515580
0.598431
0.738502
0.627637
0.724792
0.620484
0.667572
0.895858
0.860691
0.875592
1.008511
1.065731
1.252890
1.343489
2.016425
8.497834
27.825832
95.260739
190.999508
408.461690
631.233454
951.181650
1015.943885
1015.943885
1015.943885
1015.943885
807.628632
468.469858
283.047557
125.511885
56.646466
18.400550
11.760592
11.000633
11.018515
11.445880
11.938810
13.799667
16.141534
21.457672
26.595592
37.048459
46.415925
58.592558
67.282915
75.308681
77.600479
75.240731
69.014430
59.287548
51.026940
40.582418
33.357739
26.401877
##ZVALUE=355
0.218749
0.206828
0.251532
0.329614
0.200868
0.320673
0.259876
0.288486
0.223517
0.216961
0.266433
0.289679
0.271797
0.313520
0.365973
0.335574
0.252724
0.274777
0.375509
0.309944
0.228882
0.479817
0.274777
0.326633
0.523925
0.474453
0.402927
0.548959
0.190735
0.428557
0.321865
0.341535
0.520945
0.443459
0.377893
0.471473
0.480413
0.467896
0.520945
0.623465
0.677705
0.615716
0.561476
0.477433
0.576973
0.738502
0.580549
0.733733
0.545979
0.737906
0.851750
0.767708
0.966787
0.916719
1.010895
1.182556
1.361966
1.496673
1.655817
4.031658
14.360547
59.508681
130.011439
294.421911
495.494008
820.896029
1015.349627
1015.943885
1015.943885
1015.943885
905.548930
568.831563
345.673561
141.629577
66.698790
24.110675
12.582541
10.388494
10.566711
11.118650
11.329651
12.107491
12.941957
15.039444
18.068552
24.342537
31.116605
41.981936
50.184727
59.568882
66.325665
70.698857
68.846941
63.368678
57.081580
46.784878
##ZVALUE=360
0.227690
0.314713
0.397563
0.295639
0.435710
0.176430
0.171661
0.309944
0.305772
0.297427
0.374913
0.268817
0.286698
0.248551
0.243783
0.321865
0.261664
0.370741
0.328422
0.347495
0.427961
0.298619
0.375509
0.180602
0.356436
0.333786
0.389814
0.367761
0.408888
0.367761
0.586510
0.390410
0.355840
0.422597
0.376701
0.560880
0.510812
0.553727
0.476837
0.377893
0.562668
0.473857
0.623465
0.555515
0.556707
0.678897
0.524521
0.564456
0.604987
0.630617
0.725985
0.803471
0.714660
0.839829
0.887513
0.971556
0.964999
1.008511
1.306534
1.508594
1.600981
2.424717
6.736517
31.462908
79.782605
211.290717
373.656750
663.764477
920.668840
1015.951633
1015.951633
1015.951633
1015.951633
715.557933
463.156700
216.580629
109.030604
38.712621
17.109513
10.139942
9.985566
10.058880
10.207891
10.362864
10.828972
11.871457
12.991428
16.124845
19.805431
27.027726
34.160614
44.784546
51.936507
59.476495
63.328743
63.379407
##ZVALUE=365
0.404716
0.377893
0.288486
0.317693
0.363588
0.322461
0.352859
0.213981
0.301600
0.244975
0.282526
0.244975
0.375509
0.541806
0.309944
0.315905
0.399947
0.327826
0.300407
0.361800
0.544786
0.389814
0.401735
0.478625
0.481606
0.389814
0.396967
0.387430
0.524521
0.523925
0.490546
0.453591
0.592470
0.389814
0.465512
0.720620
0.548959
0.676513
0.653863
0.423789
0.532866
0.584722
0.727773
0.628829
0.518560
0.719428
0.548959
0.767708
0.655651
0.661612
0.689626
0.870824
0.732541
0.807643
0.710487
0.714660
0.791550
0.939965
1.047850
1.152754
1.264811
1.439452
1.652837
1.838803
3.295541
17.596483
48.260689
134.957433
266.963840
538.143516
766.599774
1010.513902
1016.010642
1016.010642
1016.010642
769.217610
534.383655
283.291936
147.515535
51.850677
21.410584
10.154843
8.872747
9.234548
9.247661
9.268522
9.831786
10.058880
10.431409
11.490583
13.534427
17.889738
22.470951
30.366778
37.612915
46.937466
##ZVALUE=370
0.343919
0.407696
0.433922
0.527501
0.481606
0.371933
0.399947
0.377893
0.387430
0.423789
0.552535
0.504851
0.285506
0.482798
0.521541
0.508428
0.468493
0.494719
0.449419
0.460744
0.493526
0.428557
0.498891
0.454783
0.339746
0.632405
0.398755
0.354648
0.630617
0.533462
0.621676
0.463724
0.610948
0.659823
0.487566
0.446439
0.637770
0.541806
0.405908
0.591874
0.545979
0.443459
0.654459
0.477433
0.615716
0.633597
0.699759
0.622869
0.679493
0.656843
0.782609
0.600815
0.775456
0.844598
0.741482
0.894666
0.761747
0.839829
0.894666
0.906587
1.024604
1.195669
1.192689
1.342893
1.463890
1.578927
2.118945
8.924007
29.548407
104.618669
206.247568
418.900847
652.291775
968.718529
1016.106606
1016.106606
1016.106606
897.519588
650.919676
347.931981
187.433958
70.150495
31.823516
13.165474
9.212494
8.509755
8.620620
8.724928
8.752942
8.802414
9.115934
9.778738
10.333657
12.472868
15.048981
20.435452
##ZVALUE=375
0.389814
0.470877
0.317693
0.245571
0.156760
0.284910
0.327826
0.385642
0.222921
0.493526
0.623465
0.494719
0.494719
0.395775
0.341535
0.427961
0.439882
0.270605
0.349879
0.440478
0.381470
0.345707
0.339746
0.403523
0.406504
0.356436
0.448823
0.549555
0.336766
0.448823
0.495911
0.498891
0.457764
0.624657
0.552535
0.426769
0.483990
0.376701
0.470877
0.603795
0.558496
0.595450
0.492930
0.491738
0.460744
0.533462
0.687838
0.573993
0.517964
0.592470
0.588894
0.609756
0.649691
0.668764
0.712872
0.799894
0.775456
0.710487
0.779629
0.875592
0.791550
0.959635
1.031756
0.981688
1.126528
1.331568
1.311898
1.468658
1.943707
4.083514
21.235943
54.513812
153.308511
293.381810
564.891696
793.942809
1016.078591
1016.078591
1016.078591
1005.079746
733.751655
517.252684
285.779834
154.679418
56.250691
23.699999
9.570718
8.042455
7.845759
7.805824
7.840991
8.111000
8.195639
8.460879
8.776784
9.334683
##ZVALUE=380
0.199676
0.117421
0.145435
0.085831
0.200868
0.102520
0.155568
0.113845
0.162721
0.153780
0.312924
0.391603
0.120997
0.397563
0.408888
0.238419
0.140667
0.100732
0.261664
0.242591
0.192523
0.160933
0.281930
0.355840
0.411868
0.209808
0.175834
0.237823
0.297427
0.288486
0.116825
0.276566
0.345707
0.427961
0.356436
0.290871
0.297427
0.357628
0.269413
0.265837
0.553727
0.288486
0.204444
0.339746
0.412464
0.352859
0.324845
0.367761
0.406504
0.295639
0.502467
0.475645
0.456572
0.416636
0.406504
0.411868
0.581741
0.368953
0.530481
0.534654
0.585914
0.619888
0.556707
0.730753
0.695586
0.967979
0.865459
1.151562
1.388788
1.379848
1.647472
2.729893
9.034872
43.399930
103.905797
261.711478
446.775556
729.705691
960.960984
1015.943885
1015.943885
1011.962891
844.014883
563.953519
370.510817
177.067518
89.784861
31.256676
13.574958
7.757545
7.003546
7.084608
6.957650
6.898642
7.047653
7.379651
##ZVALUE=385
0.128746
0.381470
0.260472
0.065565
0.174642
0.169873
0.302792
0.150800
0.174642
0.135899
0.038743
0.299811
0.243783
0.252724
0.194907
0.318885
0.286698
0.049472
0.237823
0.215769
0.220537
0.081658
0.156760
0.381470
0.245571
0.215769
0.347495
0.303984
0.302792
0.314713
0.200868
0.270605
0.374913
0.362992
0.260472
0.308752
0.292659
0.241995
0.385642
0.275970
0.348687
0.328422
0.295639
0.317693
0.365973
0.502467
0.362992
0.480413
0.376701
0.477433
0.352859
0.281930
0.442863
0.431538
0.392795
0.503659
0.451803
0.451803
0.468493
0.559688
0.566840
0.523925
0.584722
0.605583
0.791550
0.685453
0.756979
0.835657
1.056790
1.117587
1.144409
1.322627
1.383424
1.758933
4.134774
23.809671
62.733889
170.231462
321.728587
607.564449
840.260983
1015.964746
1015.964746
1015.964746
987.178683
728.671551
515.849590
282.653570
156.998634
62.128901
24.358630
8.358955
6.603599
6.170869
6.331801
6.490946
##ZVALUE=390
0.158548
0.227690
0.025630
0.091791
0.069737
0.130534
0.222921
0.127554
0.320673
0.286698
0.270605
0.297427
0.011921
0.275970
0.208616
0.129938
0.244975
0.232458
0.211596
0.172853
0.344515
0.120997
0.166893
0.156760
0.201464
0.127554
0.223517
0.298619
0.271797
0.215769
0.037551
0.360608
0.356436
0.237823
0.380874
0.279546
0.277758
0.310540
0.154972
0.247955
0.294447
0.257492
0.156760
0.391603
0.189543
0.406504
0.367761
0.376701
0.374913
0.464916
0.397563
0.591874
0.496507
0.218749
0.433922
0.504851
0.534654
0.373721
0.318885
0.447631
0.355840
0.565648
0.553727
0.500679
0.696778
0.723600
0.737906
0.745654
0.977516
1.117587
1.037717
1.309514
1.211762
1.234412
1.299977
1.504421
2.254844
12.213588
39.758682
130.821466
259.048939
522.255898
750.429630
1000.355482
1015.944481
1015.944481
1015.944481
866.234899
655.796528
393.561721
227.217674
91.936588
40.971637
11.524558
6.502867
5.826950
##ZVALUE=395
0.000000
0.056624
0.005960
0.046492
-0.077486
-0.043511
-0.016689
0.224710
0.163913
0.036955
-0.054836
0.181794
-0.076890
-0.099540
0.145435
0.156760
0.052452
0.182986
0.082850
-0.022650
0.085831
-0.028610
0.227690
0.156760
0.063777
-0.020862
0.023842
-0.048876
0.001788
0.081658
0.026822
0.144839
0.202656
0.199676
0.194907
0.171661
0.145435
0.225902
0.194907
0.041723
0.033975
0.200868
0.198483
0.159740
0.235438
0.100732
0.315905
0.171661
0.202656
0.108480
0.183582
0.140667
0.276566
0.257492
0.391603
0.242591
0.238419
0.225902
0.215769
0.350475
0.430942
0.431538
0.393987
0.373721
0.357628
0.412464
0.425577
0.610948
0.572801
0.749826
0.721812
0.865459
0.966787
0.915527
1.037717
0.939965
1.165867
1.254678
1.428723
6.594658
24.590492
88.928938
179.201961
375.672579
589.702725
909.044743
1015.815735
1015.815735
1015.815735
990.791917
771.013498
463.812947
282.620788
124.288797
58.314800
18.459558
##ZVALUE=400
0.102520
-0.011921
0.055432
0.184774
0.057817
0.099540
0.127554
0.127554
0.016689
0.050664
0.150800
0.033975
0.097752
0.117421
0.211596
0.195503
0.086427
-0.041723
0.159740
-0.035763
0.140667
0.086427
0.153780
0.015497
0.094771
0.113845
0.145435
0.045896
0.130534
0.205636
0.226498
0.210404
0.125766
0.050664
-0.008941
0.000596
0.134706
0.088811
0.103712
0.052452
0.235438
0.171661
0.283718
0.163913
0.260472
0.156760
0.222921
0.153780
0.236630
0.323653
0.221729
0.189543
0.155568
0.367761
0.225902
0.334978
0.189543
0.335574
0.152588
0.488758
0.244975
0.381470
0.355840
0.403523
0.454783
0.566840
0.596642
0.467896
0.782609
0.748634
0.768900
0.927448
0.785589
0.911951
0.677705
0.842810
0.755787
0.991821
0.924468
1.267791
1.446605
3.545880
13.463497
52.414536
119.759440
294.913650
485.926867
790.712833
989.705920
1015.859842
1015.859842
1003.440022
817.579031
525.425673
337.780714
166.595578
##END
