##TITLE=QP00601
##FORMAT=SPECTACLE-ASCII V-1.2
##DATA TYPE=ULTRAVIOLET SPECTRUM
##SECOND TYPE=ULTRAVIOLET SPECTRUM
##DATE=01/21/18
##TIME=16:14:51
##SPECTROMETER/DATA SYSTEM=SPECTACLE
##XUNITS=NM EM
##YUNITS=ENERGY
##YFACTOR=1
##FIRSTX=220
##LASTX=410
##NPOINTS=96
##3DDATA=Equidistant
##ZUNITS=NM EX
##FIRSTZ=210
##LASTZ=400
##ZPOINTS=39
##XYDATA=(Y..Y)
##ZVALUE=210
1.665950
1.050830
1.586676
1.618862
1.504421
2.531409
2.130866
1.734495
2.280474
1.771450
1.621842
2.065897
2.109408
1.598597
2.166629
2.001524
1.870990
2.153516
2.359748
1.926422
2.405643
2.910495
2.764463
2.694726
2.509952
2.543926
3.544688
3.036857
2.625585
3.066659
3.633499
3.656745
3.476739
4.152656
3.823638
3.775954
3.924966
3.145933
3.831983
3.592968
4.402995
4.182458
4.225969
4.118681
3.701448
3.809929
3.855824
4.367828
4.281998
3.729463
4.473925
4.416704
4.201531
4.335642
4.556775
4.970431
4.554987
4.431605
4.660487
4.604459
4.199743
4.368424
4.722476
4.380941
4.315972
5.074739
4.946589
5.693436
7.135868
8.001924
8.358955
10.618567
11.960864
13.804436
13.337731
13.743639
14.625788
13.459921
14.308691
12.993813
11.113882
11.014938
8.857846
7.185936
5.991459
6.640553
5.671978
5.373955
4.940629
4.802942
4.978776
4.509687
4.500747
5.261898
5.707741
4.653931
##ZVALUE=215
4.679561
5.007982
3.898740
3.980994
3.539920
3.491640
4.371405
3.997684
4.216433
3.829598
3.918409
3.489852
3.660917
2.659559
2.877712
1.944900
2.024770
2.539754
2.312660
2.640486
2.641678
2.670884
2.813935
3.080964
2.760887
2.536774
2.709627
3.129840
3.322959
4.162788
3.343821
3.735423
3.225803
3.849864
3.988743
3.699660
4.205704
4.649758
4.917979
4.025698
4.013777
4.496574
4.159808
5.028844
4.981756
4.257560
4.527569
4.612803
4.813671
4.200935
4.926920
4.531741
4.966855
4.550815
4.392862
4.466772
4.509687
4.962683
4.919767
5.536675
5.482435
4.183650
4.284978
4.152656
4.710555
5.899668
4.936457
6.309748
6.833673
6.407499
8.163452
10.427833
9.866953
13.302565
11.547804
12.008548
12.625456
12.497902
11.179447
10.802746
10.397434
9.152889
8.358955
7.692575
7.730722
5.884767
6.302595
5.428791
4.646778
5.659461
5.131960
6.037951
5.255938
5.364418
4.916787
4.862547
##ZVALUE=220
13.581514
13.406873
15.086532
16.519427
16.029477
12.708902
11.850595
9.056926
8.925796
9.077787
8.929968
9.714961
9.696484
8.760691
7.243752
6.663799
4.548430
4.617572
3.011823
2.791882
2.886653
2.760887
3.233552
2.837777
3.141761
3.339648
3.020763
3.366470
3.743768
3.974438
4.125834
3.886819
4.101992
4.495978
4.335642
4.259944
4.657507
4.660487
4.400611
4.570484
4.608631
4.519820
4.534721
5.224943
4.882812
4.615784
4.791617
4.683733
5.408525
5.155802
5.108714
5.460978
5.216599
5.171895
4.676580
4.549623
5.308986
5.387664
5.379915
4.751682
4.326701
5.220771
5.029440
5.376935
5.997419
6.284714
5.989671
6.353855
6.412864
7.045865
7.805824
8.865595
11.005998
10.747910
11.208653
12.595654
12.700558
11.554956
13.513565
10.427833
10.874867
9.907484
10.786653
8.911490
8.351803
6.704926
6.156564
6.670952
6.494522
5.862713
5.939603
5.770922
5.621910
6.226897
5.670786
5.686879
##ZVALUE=225
23.770928
24.987459
31.862855
45.009851
50.619841
52.070618
48.519969
40.722489
32.667518
28.194785
21.698475
19.528866
21.117926
24.285913
24.009943
23.296475
20.124912
16.415715
12.713671
9.486675
5.390644
3.619790
3.403425
2.902746
3.923774
3.127456
3.361702
3.823638
4.530549
3.856421
3.915429
5.697608
5.045533
4.096627
5.007982
5.705953
5.627871
6.593466
5.335808
5.246997
5.305409
6.350875
6.380677
5.692840
5.672574
5.633831
5.526543
5.983710
5.013943
5.813837
6.620884
6.453991
6.489754
5.185604
5.931854
5.766749
6.119609
6.077886
5.839467
6.176829
5.692840
7.208586
7.976890
7.441640
6.320477
7.833838
6.740689
6.997585
8.328557
8.323789
9.624958
10.307431
13.021827
12.000799
12.918711
14.338493
13.449788
12.161732
13.784766
13.376474
11.455417
13.298988
12.950897
10.964870
9.764433
9.929538
9.547472
9.016991
8.896589
9.257793
9.233952
9.728670
9.742975
8.515716
8.248687
8.833408
##ZVALUE=230
19.795895
20.590425
41.068792
61.325431
92.761517
114.595890
133.399963
138.747692
124.399662
103.424788
76.009631
60.001612
46.587586
40.489435
42.786598
46.377778
47.378540
45.287609
42.708516
32.928586
27.557611
18.932819
10.269880
7.201433
5.432963
4.323721
3.833771
4.092455
4.572868
4.237890
4.639626
4.945993
5.387664
6.349683
5.865693
5.451441
5.874634
6.784797
5.834699
6.599426
6.594658
6.332994
6.531477
6.662607
7.006526
6.293654
6.773472
6.330609
6.395578
6.148815
6.570816
7.739663
7.626414
7.701516
7.614493
7.281899
7.359982
8.394718
7.173419
7.948875
8.793473
9.393692
8.835793
8.969903
10.085702
9.832978
10.635853
10.692477
11.528730
13.313890
12.414455
14.898777
16.353726
16.263723
16.463995
17.889738
17.375946
18.036962
17.272830
17.184615
16.852617
16.962886
17.166734
16.469955
16.254783
17.084479
15.742779
14.688969
14.619827
15.887618
15.805960
14.705658
15.788674
13.978481
15.123487
15.312433
##ZVALUE=235
7.584691
7.780790
18.873811
45.667887
75.994730
129.343867
174.341798
231.960416
264.920592
266.893506
245.622993
216.843486
148.836970
111.926794
83.727837
71.310997
75.050592
74.631572
80.590844
82.934499
77.681541
62.950850
51.913857
35.010576
24.864674
13.758540
9.504557
6.981492
5.286932
5.186796
5.683899
5.588531
5.249977
5.525947
5.878806
6.047487
6.216764
6.133914
7.312894
6.449819
5.665421
6.623864
7.056594
5.522966
6.621480
6.286502
5.949736
5.708933
6.824732
6.507635
6.192923
7.378459
6.823540
7.366538
8.529425
7.013679
8.079410
9.752512
9.063482
10.045767
9.211898
10.293722
10.780692
11.138916
12.249947
12.816787
13.187528
14.059544
14.597774
15.760660
16.429424
18.515587
20.188689
23.275614
21.101832
22.024512
23.126602
23.781657
23.772717
23.153424
24.171472
23.084879
22.515655
22.128820
22.973418
23.203492
23.607612
22.917986
23.803711
23.867488
23.468733
21.356940
22.468567
21.274686
21.862984
21.924973
##ZVALUE=240
1.573563
1.577735
4.026890
11.054873
31.481981
57.226419
117.747784
187.493563
293.250680
359.848738
430.457592
428.856611
400.738716
333.883762
265.246630
172.323585
124.467611
99.907517
91.455579
100.906491
107.956529
116.981864
112.106800
105.162859
78.260899
65.025687
44.046640
32.640696
18.125772
11.341572
9.163618
6.657839
6.352663
6.271601
5.523562
6.547570
6.606579
6.809831
6.461740
6.458759
6.765723
6.123781
6.429553
6.468892
5.998611
7.041693
6.200671
6.699562
6.023645
6.600618
6.948709
7.875562
6.903410
7.066727
7.941723
8.037686
8.405447
9.398460
9.103417
10.283589
10.132790
11.475682
11.794567
12.416840
13.136864
14.028549
15.089512
15.255809
16.820431
18.183589
19.772649
21.369457
22.730827
25.679469
26.119947
28.485656
28.322935
29.891729
28.475523
27.262568
28.169751
27.571917
28.796792
27.256608
30.254722
27.154684
28.766990
29.063821
28.344989
29.076934
29.287934
29.557943
29.331446
28.107762
27.790666
30.200481
##ZVALUE=245
1.217723
1.261830
1.092553
1.171827
2.504587
8.148551
26.318431
54.894686
127.771497
201.754570
324.654579
415.705442
486.277938
518.095493
502.937436
429.987907
348.534584
240.536928
175.380707
114.974976
98.540783
100.903511
112.172961
129.000545
130.986571
127.331614
111.745000
94.013810
72.708726
53.065419
37.763715
21.809936
14.204979
7.923841
7.159710
5.863905
6.563663
6.372929
5.747676
5.809665
5.534887
5.441904
5.910993
4.906654
5.469918
6.491542
5.353689
5.834699
5.047917
5.989671
5.894899
6.376505
5.850792
6.558895
6.742477
7.181764
7.235408
7.754564
8.155704
8.908510
9.364486
10.597706
9.832978
11.434555
10.877848
13.558865
12.967587
14.162660
14.637709
17.135739
19.068718
20.208955
20.850897
23.859739
23.633838
26.256442
26.188493
27.206540
27.742982
27.608871
27.500987
28.938651
27.832985
27.880669
30.152798
30.018687
28.054714
29.454827
30.218959
28.289557
30.935407
31.179786
29.833913
30.349493
29.461980
30.195713
##ZVALUE=250
0.999570
0.990629
1.176596
1.080632
1.201630
1.118779
1.813769
4.926920
20.721555
47.044754
114.084482
193.980932
288.428664
432.416797
522.337556
597.566962
599.389672
543.874502
461.142659
325.139761
226.452947
152.458549
100.498796
93.865991
106.938481
123.412609
135.762691
142.492652
133.027434
124.908686
107.817650
79.345703
58.126450
35.294890
23.228526
12.627840
8.934736
6.619692
5.467534
5.859733
5.967617
6.134510
6.261468
5.540848
5.827546
5.549788
5.086660
5.261898
6.284714
5.295873
5.293489
5.263686
5.956888
5.661845
5.559921
6.910563
6.342530
7.141829
7.001758
7.651448
8.013844
8.823872
9.227991
9.866953
10.312796
11.108518
11.820793
13.310909
13.999939
14.657974
16.954541
18.690825
19.396544
21.081567
22.907853
22.195578
23.465753
23.037791
24.267435
25.030971
26.424527
25.559664
25.304556
26.771426
26.240945
27.651787
27.384758
28.111935
27.522445
27.768612
27.830601
27.528405
27.902722
28.886795
28.199553
29.377937
##ZVALUE=255
0.744462
0.997782
1.064539
0.967979
1.014471
0.962615
0.976920
1.289845
1.083612
3.281832
10.342598
39.153695
77.787638
173.074007
265.284777
419.486761
530.607700
634.009838
681.146979
646.290779
565.973520
473.366976
299.031734
194.700956
112.619996
89.866519
89.472532
105.389953
129.037499
139.752626
148.668885
143.437982
133.301616
103.800893
84.406734
56.717992
37.639737
21.663904
13.173819
9.078979
6.527901
5.603433
5.959868
6.159544
5.646944
5.721450
5.700588
5.640984
4.827976
5.593896
5.756617
5.499721
6.000996
5.489588
5.982518
5.749464
6.030798
6.205440
7.222891
7.392764
7.791519
7.682443
8.745790
8.170605
9.193420
10.017753
10.332465
11.019707
12.728572
12.894869
14.341474
16.357899
16.861558
17.347932
18.492937
20.817518
20.402670
21.982789
21.781921
21.694899
23.801923
24.359822
23.790598
23.366809
24.203658
25.352836
26.106834
25.935769
25.579929
25.540590
27.556419
25.932789
25.965571
25.615692
27.227998
28.584599
##ZVALUE=260
0.722408
0.782609
1.019835
0.884533
0.705719
1.000762
0.888705
1.083612
1.382828
1.068711
1.464486
1.496673
5.479455
22.125840
51.464438
128.050447
214.948654
361.686945
498.012900
660.758018
739.287734
758.622885
679.793954
566.467643
383.718014
261.707902
155.039430
101.893544
75.243711
80.524683
107.182860
125.175714
144.185424
153.924823
151.100755
129.640698
112.590790
80.668926
59.421659
36.581755
25.700927
14.142990
9.584427
7.085800
6.396770
6.247759
5.814433
6.216764
6.484985
6.072521
5.854964
5.985498
5.955696
6.609559
6.209612
6.125569
6.314516
6.043911
7.069707
6.923676
7.847548
7.829666
8.276701
8.639693
8.695722
9.363890
10.125637
10.852814
11.543632
12.415648
13.439655
14.988780
15.074611
16.652942
17.622709
19.094944
18.250942
19.736886
20.306706
20.817518
21.547675
21.700859
22.498965
22.663474
23.831725
22.959709
23.344755
22.327900
24.373531
25.070906
23.626685
24.840832
24.070740
24.990439
25.731921
26.795864
##ZVALUE=265
0.869632
0.867844
0.727773
0.640750
0.599623
0.972748
0.841618
0.723600
0.676513
1.035929
1.198649
1.146793
1.318455
1.435876
2.961755
14.542937
36.646724
96.488595
174.868703
333.908796
479.536653
627.622008
772.135854
812.115669
761.561990
660.449862
494.362712
356.516838
203.104615
127.307773
82.636476
67.696571
80.217719
109.988451
134.375691
153.568983
157.670975
150.565505
135.221481
107.176900
85.581541
57.723522
38.738847
22.798777
14.398694
8.843541
6.886721
6.688833
6.562471
6.739497
6.482601
6.527901
6.766915
7.260442
7.083416
6.630421
6.683469
6.938577
7.091761
7.533431
7.515550
8.547902
8.666515
9.145737
9.637475
9.327531
9.973645
10.993481
11.671782
11.962652
12.984872
14.603734
14.553666
16.795993
16.206503
17.680526
18.283725
18.514991
19.210577
18.889904
20.165443
21.030903
20.513535
21.357536
22.503734
22.104979
23.083687
22.409558
22.466779
23.347735
23.525953
23.816824
24.076700
23.351908
24.665594
24.311543
##ZVALUE=270
0.347495
0.297427
0.437498
0.553727
0.484586
0.772476
0.728965
0.589490
0.636578
0.741482
0.921488
0.805855
0.805855
1.095533
0.999570
1.085997
1.446605
6.618500
20.555854
68.696737
137.632489
214.059949
429.497957
589.645505
771.048665
839.617848
848.594904
776.428580
612.808466
472.543836
291.196704
180.217624
91.614723
61.518550
65.532923
81.879497
111.326575
134.573579
155.339837
158.897638
153.066516
138.621926
109.892488
89.010596
58.911443
41.120648
25.133491
16.880631
10.773540
8.775592
7.272959
6.868839
7.003546
7.088780
7.276535
7.387996
7.591844
7.670522
8.335710
8.113980
8.438826
8.896589
8.893609
9.271502
9.798408
10.280609
10.478497
10.670424
11.443496
12.920499
13.082623
14.478564
14.584661
15.855432
16.471744
17.423630
17.305613
17.567873
18.121600
19.440651
18.447638
19.504428
19.653440
20.217896
21.176934
21.547675
21.492839
21.604896
21.801591
21.258593
22.440553
22.532940
21.943450
22.123456
22.820830
22.932887
##ZVALUE=275
0.502467
0.626445
0.570416
0.677705
0.616908
0.621676
0.598431
0.576973
0.739694
0.602603
0.518560
0.579953
0.522733
0.817776
0.810623
1.198649
1.147985
0.872612
1.153946
2.908707
12.377501
35.550594
106.778741
202.771425
389.176011
536.840558
716.524720
824.766755
882.301927
843.221545
746.721625
567.703843
406.115651
218.229890
130.116940
64.594746
50.308704
60.683489
80.207586
110.391974
133.480430
151.071548
156.583786
151.617527
137.017965
110.038519
87.835789
62.785745
43.935776
25.469661
18.136501
11.482835
9.833574
8.606911
8.559823
8.582473
8.284450
9.176731
9.139776
9.722710
9.478927
9.864569
10.459423
10.730624
11.267662
11.318922
11.530519
11.939406
12.434721
13.535619
13.441443
14.315844
15.736818
16.171932
16.540885
17.631650
18.190742
18.555522
19.314885
18.650889
19.480586
19.834638
20.620823
20.559430
20.179749
21.159649
20.995736
21.414757
21.641850
21.550655
21.471977
21.799803
20.967722
22.074580
21.838546
22.398829
##ZVALUE=280
0.452995
0.358820
0.255704
0.631809
0.522733
0.380874
0.313520
0.544786
0.526905
0.483990
0.460744
0.510812
0.613928
0.606775
0.744462
0.841618
0.907779
0.877976
1.025796
1.006722
1.209974
1.586676
7.412434
25.681853
84.614754
157.821774
301.504731
443.121791
655.806661
794.242024
882.797837
898.074508
815.021992
628.371835
465.181470
268.163681
160.316825
76.980591
48.078895
43.385625
56.573749
83.333850
108.224750
132.929683
147.824883
154.366493
149.755478
131.088495
112.820864
83.621740
63.499808
40.209889
28.319955
17.188787
12.626648
9.908676
10.132790
9.907484
9.226799
10.085702
10.082722
10.234714
11.387467
11.490583
11.551976
12.193918
12.617707
13.230443
13.093948
14.726520
15.036464
15.968680
16.310811
16.528964
17.254949
17.976761
18.761754
18.840432
19.314885
18.967986
19.863844
19.582510
20.415783
19.821525
19.957423
20.736456
19.986629
20.498633
21.295547
20.648837
20.989776
19.932985
21.011829
21.126866
21.013618
21.439791
##ZVALUE=285
0.538826
0.424981
0.489950
0.576973
0.612736
0.579953
0.515580
0.479817
0.545979
0.551939
0.715852
0.567436
0.523925
0.590682
0.640750
0.870824
0.688434
0.860691
0.893474
1.021624
1.047850
1.074672
0.943542
1.176596
3.898740
14.065504
47.375560
101.520419
226.026773
357.851982
503.063798
715.575814
848.841667
924.493670
884.865522
731.640458
575.994849
362.969637
226.581693
110.049844
58.930516
33.866763
36.005974
54.237843
75.072646
104.252696
123.857856
141.380429
149.920583
146.925449
134.246945
109.762549
89.006424
62.226653
44.291615
27.395487
18.669963
13.560653
11.424422
11.047721
10.617971
11.433959
11.650920
12.052655
12.196898
12.508631
13.453960
13.340712
14.318824
15.312433
15.832782
16.948581
16.623735
17.133951
17.311573
17.943978
18.947721
18.827915
18.639565
19.122958
19.499660
19.696951
20.353794
20.320415
20.969510
21.055937
20.471811
20.981431
20.748973
21.064878
20.677447
20.553470
20.391941
20.955801
20.587444
20.962954
##ZVALUE=290
0.340939
0.454783
0.429749
0.386834
0.478625
0.543594
0.532866
0.574589
0.708699
0.521541
0.556707
0.792742
0.872612
0.683665
0.693798
0.686646
0.497699
0.701547
0.726581
0.768900
0.931621
0.895858
1.007915
1.122952
1.036525
1.291633
1.921654
5.449653
26.370883
64.707994
130.997896
280.264616
435.402989
671.207905
825.020671
949.491858
963.246822
855.484605
708.215833
474.521518
315.563679
153.760910
80.906749
35.594702
26.627779
34.560561
48.999786
71.659684
93.123913
120.674968
135.321617
145.432949
143.358707
128.434896
111.117959
81.938505
62.857866
41.731596
29.269457
19.258857
15.352964
12.143850
12.118816
12.429953
12.783408
13.034940
13.069510
13.712645
14.447570
15.460849
16.223788
16.366839
16.709566
17.607808
17.558932
18.655658
18.481612
19.002557
19.358993
19.756556
19.970536
20.454526
19.950867
21.238923
20.680428
20.483732
20.875931
20.518899
20.988584
20.944476
20.920634
20.100474
20.478964
20.180941
20.237565
20.222664
##ZVALUE=295
0.455976
0.348687
0.459552
0.475645
0.397563
0.587702
0.351667
0.295639
0.553727
0.451803
0.570416
0.392795
0.466704
0.486970
0.456572
0.579953
0.501871
0.527501
0.675917
0.593662
0.700951
0.819564
0.817776
0.864863
0.935793
1.022816
1.064539
1.083612
1.454949
2.512932
8.488894
39.905906
95.452666
227.612853
370.033979
594.710708
757.522583
936.122537
988.277793
947.209001
837.586522
607.951880
426.479578
227.570534
120.206475
44.385791
24.218559
20.882487
29.302835
47.053695
65.212846
92.154741
111.750960
131.285787
138.021708
135.570765
123.722553
103.960633
84.449649
59.465766
44.285655
27.763844
20.876527
15.610456
13.369918
13.337731
12.736917
13.767481
14.394522
14.469624
15.151501
16.143918
16.281605
17.521977
17.943978
18.702745
18.378496
18.951893
19.412637
19.946694
20.502806
20.206571
20.075440
20.621419
20.616651
20.759702
20.602942
20.631552
20.857453
21.202564
20.861626
20.448565
20.040870
20.806789
20.034909
19.783974
##ZVALUE=300
0.470877
0.350475
0.434518
0.324845
0.292659
0.473857
0.403523
0.585914
0.354648
0.373721
0.455976
0.435710
0.456572
0.419617
0.475645
0.500679
0.583529
0.558496
0.512600
0.673532
0.578761
0.663996
0.677705
0.782609
0.724792
0.928640
0.755787
0.728965
0.834465
1.170635
1.332760
1.290441
5.524755
20.336509
71.327686
143.873692
301.228762
464.075804
684.129596
827.702880
971.827507
994.619727
913.514495
789.367557
554.938912
370.197892
186.305642
96.450448
32.904744
17.314553
18.020868
25.743842
41.367412
58.141947
83.189607
101.721883
125.453472
130.762458
129.776001
121.552944
102.731586
84.655881
60.319901
45.044422
30.231476
22.168756
16.790628
14.819503
14.237761
14.518499
15.110970
15.972853
16.297698
16.800761
18.357635
18.022656
18.367767
19.231439
19.859672
19.966960
20.366907
20.717978
20.400882
20.716786
21.149516
21.201968
20.872951
20.881891
20.664930
20.911694
20.597577
20.540953
20.859838
20.746589
20.065904
20.009875
##ZVALUE=305
0.410676
0.336766
0.346899
0.444651
0.383854
0.325441
0.307560
0.471473
0.397563
0.357628
0.296831
0.278950
0.375509
0.639558
0.416636
0.519753
0.622869
0.434518
0.413656
0.647902
0.625849
0.559688
0.679493
0.738502
0.509620
0.705719
0.774860
0.676513
0.923872
1.063943
0.967979
0.916719
1.047850
1.460910
2.616644
11.166930
44.967532
100.235939
231.884718
366.351604
579.590797
743.271708
913.348794
988.114476
961.303711
869.581699
690.920949
518.965721
303.390026
171.418786
61.171651
23.487806
13.401508
16.110539
25.935769
38.084984
59.581995
77.269673
100.904703
114.471912
126.200914
125.730634
114.089847
100.976825
77.830553
62.196851
43.011904
32.056570
21.953583
18.194914
16.011596
15.963912
16.411543
16.984940
17.978549
18.373728
19.156933
19.610524
19.449592
20.340681
21.122694
21.188855
21.041632
21.392703
21.637678
21.316409
22.189617
21.932721
21.721721
21.956563
21.297932
20.813942
20.793676
21.123886
20.714998
20.538568
##ZVALUE=310
0.321865
0.340939
0.444651
0.401735
0.504851
0.412464
0.250936
0.261664
0.498891
0.399947
0.260472
0.372529
0.272989
0.364780
0.461936
0.402927
0.284910
0.378489
0.439882
0.391603
0.465512
0.428557
0.482798
0.409484
0.655651
0.666976
0.699759
0.539422
0.661612
0.774860
0.846982
0.951886
0.930429
0.996590
0.962615
1.098514
1.700521
4.285574
23.709536
59.258938
149.132609
258.298516
462.560654
625.675917
822.634697
919.903517
953.732729
898.659825
763.304830
628.215671
415.429473
276.485682
132.756829
58.360696
16.702414
12.023449
15.516877
22.582412
36.006570
49.444437
71.772933
89.400411
108.328462
116.207004
118.413568
113.244653
98.032951
81.996918
59.502721
45.163631
31.341910
25.486946
20.576715
18.582940
17.768741
18.327832
19.139647
18.831491
19.989610
20.405650
20.660758
20.666718
21.473765
21.449924
21.940470
22.168756
21.977425
21.721721
22.013783
22.059679
21.998882
21.617413
21.466613
21.028519
21.222830
20.543933
##ZVALUE=315
0.259876
0.169873
0.274777
0.251532
0.135899
0.265837
0.363588
0.287890
0.359416
0.266433
0.344515
0.388622
0.318885
0.353456
0.391603
0.362992
0.334978
0.403523
0.374913
0.351667
0.330806
0.292659
0.457764
0.503659
0.484586
0.512600
0.653863
0.547767
0.663996
0.524521
0.692606
0.567436
0.829697
0.715852
0.777841
0.800490
1.070499
1.123548
1.277924
2.107620
11.574626
34.696460
105.566978
195.474625
374.283791
534.638762
727.492571
836.606026
890.249610
846.703649
710.515976
565.004945
363.538861
233.733654
115.791559
57.876706
20.306706
11.366606
11.299849
13.910532
22.064447
31.988621
48.843622
65.602660
86.434484
101.056695
112.770796
113.433599
105.592608
93.907714
74.605942
61.357617
44.780970
35.159588
26.563406
23.105741
20.633936
19.892454
19.820929
19.900799
21.096468
21.152496
21.422505
21.849871
22.182465
22.227764
22.439957
22.833943
22.611618
22.087693
22.174716
21.941662
21.590590
21.462440
21.603703
21.011829
##ZVALUE=320
0.334978
0.360608
0.215769
0.199676
0.227690
0.268817
0.360608
0.339746
0.286698
0.214577
0.266433
0.337958
0.414848
0.330806
0.272989
0.444651
0.394583
0.530481
0.363588
0.331998
0.294447
0.439882
0.516772
0.406504
0.218749
0.445843
0.450611
0.532866
0.512600
0.554919
0.633597
0.687838
0.608563
0.567436
0.724792
0.811815
0.722408
0.930429
0.916719
0.994802
1.176000
1.064539
5.378723
18.397570
68.042874
136.825442
284.118652
427.775979
641.337633
786.777735
895.003676
896.236897
784.569979
655.022860
453.439951
300.927758
142.292976
76.592565
29.866695
15.165806
9.679794
10.842681
14.553666
19.727945
31.491518
43.873787
63.532591
79.547763
98.818541
108.128786
109.707713
106.034875
91.190934
77.950954
60.067773
48.632622
35.755634
28.664470
23.752451
22.111535
21.449924
21.224618
21.556616
21.901727
22.116899
22.574663
22.359490
22.251606
22.222996
21.920800
22.397637
21.692514
21.849871
21.882653
21.728873
21.868944
##ZVALUE=325
0.257492
0.319481
0.226498
0.206828
0.294447
0.332594
0.358820
0.408888
0.192523
0.234842
0.427961
0.214577
0.118613
0.126958
0.244975
0.249743
0.298619
0.341535
0.308752
0.381470
0.420809
0.356436
0.324845
0.292659
0.406504
0.266433
0.454783
0.440478
0.385642
0.469685
0.481606
0.433922
0.564456
0.490546
0.619888
0.650883
0.666976
0.695586
0.654459
0.780821
0.928640
0.995994
0.994802
1.189709
2.277493
15.233755
40.400624
108.400583
198.871493
378.330946
529.128909
720.815659
820.959806
862.589478
812.961459
653.169751
500.300527
316.763520
199.568868
90.794563
45.052767
17.465949
10.634661
9.705424
11.109710
14.809966
20.510554
32.233000
44.144988
63.124895
77.936649
95.152855
102.813840
105.149746
99.529624
86.609721
72.753429
56.944489
46.212673
34.390688
28.472543
24.377704
23.003817
22.269487
21.816492
21.845698
22.249818
21.992922
22.335649
21.909475
21.729469
22.044778
21.440983
21.778941
21.842718
21.998882
##ZVALUE=330
0.289679
0.285506
0.280738
0.218749
0.302792
0.162721
0.365973
0.220537
0.159740
0.287890
0.085831
0.163913
0.312924
0.256896
0.265837
0.242591
0.230670
0.295639
0.245571
0.393987
0.319481
0.410676
0.364780
0.411868
0.287890
0.402927
0.372529
0.387430
0.475645
0.502467
0.419617
0.444651
0.468493
0.275970
0.419617
0.543594
0.592470
0.458956
0.503659
0.714660
0.809431
0.813603
0.764728
0.629425
0.984669
1.064539
1.331568
6.694794
23.360848
74.047446
142.534971
287.995934
430.804491
634.379983
767.282844
859.740973
843.291879
728.275776
592.664480
392.416716
260.282755
124.886632
66.186786
25.971532
13.681650
9.811521
10.324717
12.049675
15.049577
21.801591
30.168891
44.579506
57.707429
78.644753
90.288520
99.145770
100.208521
94.889998
85.125566
68.297982
56.760907
42.775869
35.351515
29.312968
25.503635
23.636818
22.661686
22.108555
21.587610
21.319985
21.573901
21.793842
21.204948
21.451712
21.368861
21.220446
##ZVALUE=335
0.080466
0.086427
0.287890
0.286698
0.228882
0.245571
0.315905
0.241995
0.143647
0.243783
0.161529
0.282526
0.284910
0.262856
0.331998
0.364780
0.244975
0.349879
0.304580
0.320673
0.234842
0.309944
0.261664
0.300407
0.363588
0.609756
0.414848
0.368953
0.367761
0.359416
0.434518
0.284910
0.390410
0.587702
0.504851
0.459552
0.574589
0.512600
0.427961
0.694990
0.592470
0.712872
0.443459
0.583529
0.575781
0.831485
0.777841
1.016855
1.012683
2.960563
11.480451
46.789646
100.143552
226.947665
369.369984
577.991605
718.846917
831.113458
846.423507
766.294003
656.693578
457.499623
315.205455
167.890787
89.995861
33.238530
16.584992
10.611415
10.345578
11.277795
12.565851
15.826821
20.818710
31.763911
43.243766
60.008764
72.403550
86.996555
93.778968
94.822645
91.705918
78.333616
68.589449
56.117773
45.410991
35.420656
29.864907
25.113821
23.580790
22.139549
21.135807
20.904541
20.504594
20.455718
20.785928
20.471811
##ZVALUE=340
0.252724
0.140667
0.248551
0.247955
0.142455
0.131726
0.191927
0.218749
0.146627
0.100732
0.105500
0.236630
0.134706
0.156760
0.283718
0.300407
0.302792
0.332594
0.265837
0.369549
0.183582
0.188947
0.466704
0.341535
0.205636
0.308752
0.358820
0.465512
0.473857
0.328422
0.302792
0.501871
0.342727
0.388622
0.409484
0.447631
0.354648
0.442863
0.450611
0.537634
0.465512
0.645518
0.415444
0.665784
0.725985
0.550747
0.780821
0.876784
0.836849
0.842810
0.978708
1.357794
7.941723
27.374625
85.618496
166.386962
332.826972
473.840833
647.267699
750.361681
814.594626
789.654851
668.784976
543.679595
350.340009
225.140452
108.413696
54.097772
19.468665
11.688471
10.482669
10.983944
11.654496
12.805462
16.596913
20.664930
30.671954
41.253567
57.638884
69.813728
83.434582
89.442730
89.582801
86.908937
77.539682
67.680478
54.377913
44.300556
34.290552
29.123425
24.092793
21.954775
21.048784
20.508766
19.937754
19.755960
##ZVALUE=345
0.204444
0.081658
0.097752
0.263453
0.111461
0.097752
0.215769
0.193715
0.259876
0.259876
0.173450
0.353456
0.224710
0.335574
0.192523
0.217557
0.174642
0.139475
0.346899
0.256896
0.318885
0.240803
0.299811
0.316501
0.369549
0.284910
0.308752
0.319481
0.385642
0.399947
0.371933
0.444651
0.363588
0.230670
0.366569
0.371933
0.412464
0.427961
0.428557
0.356436
0.503659
0.578761
0.570416
0.532866
0.422597
0.455976
0.543594
0.595450
0.661612
0.762939
0.681877
0.952482
0.982881
1.006722
2.257824
16.245842
49.176812
133.737922
238.911510
425.129533
574.473739
734.402537
811.257958
814.749002
743.570924
576.182604
438.461900
267.897844
156.412721
65.126419
31.884909
13.993979
10.690689
10.700822
11.090636
12.174845
13.191700
16.037822
20.418763
29.960871
39.513707
53.789616
64.116716
75.544715
81.429482
83.889961
81.245899
73.310733
65.208673
52.184463
43.634772
32.719970
27.462840
22.699833
20.962954
19.608736
##ZVALUE=350
0.205636
0.157952
0.156760
0.156760
0.294447
0.124574
0.246763
0.256896
0.016689
0.152588
0.104904
0.241995
0.248551
0.029802
0.231862
0.188947
0.396967
0.228882
0.139475
0.219941
0.247955
0.202656
0.161529
0.297427
0.286698
0.370741
0.323653
0.295639
0.253916
0.326633
0.264645
0.252724
0.317693
0.186563
0.290871
0.335574
0.338554
0.359416
0.354648
0.468493
0.313520
0.415444
0.303984
0.475645
0.526905
0.433922
0.631809
0.557899
0.380874
0.617504
0.708699
0.700951
0.813603
0.792742
0.971556
1.064539
1.865625
6.618500
30.866861
74.872971
187.302828
308.297873
506.934524
651.308894
802.143812
834.659934
771.965981
661.729574
466.008782
318.890810
166.047812
94.915628
40.041804
18.691421
10.782480
10.117888
10.439754
10.443926
11.624694
13.207793
15.984774
19.533634
27.262568
34.314990
47.264695
56.445599
68.467855
73.884726
77.502728
75.754523
68.601966
60.276985
49.530864
40.838718
31.344891
26.388764
##ZVALUE=355
0.151992
0.243783
0.190735
0.210404
0.183582
0.196695
0.203848
0.270605
0.104904
0.196695
0.226498
0.093579
0.181794
0.238419
0.238419
0.323653
0.245571
0.122786
0.254512
0.251532
0.230670
0.109673
0.435710
0.415444
0.337958
0.340939
0.460744
0.453591
0.273585
0.168681
0.439882
0.357628
0.340939
0.240803
0.301600
0.282526
0.378489
0.387430
0.240803
0.419617
0.398755
0.306964
0.401735
0.403523
0.513792
0.438690
0.362992
0.529885
0.371933
0.678897
0.628829
0.575781
0.607967
0.623465
0.755787
0.781417
1.105666
0.951886
1.363754
2.855659
18.157959
49.890876
138.344765
245.593786
438.321829
587.522984
749.310851
815.261006
790.951848
699.458718
521.445870
385.019779
225.518942
129.705667
53.485632
26.226640
11.514425
9.652972
9.948611
10.100603
11.038780
11.460781
12.253523
14.479756
18.257499
22.983551
31.914711
39.557815
51.573515
59.235692
66.654682
69.421530
68.543553
63.955784
55.973530
47.879815
##ZVALUE=360
0.192523
0.170469
0.033975
0.083447
0.201464
0.220537
0.273585
0.136495
0.337958
0.316501
0.264645
0.329614
0.232458
0.201464
0.257492
0.249743
0.055432
0.076890
0.340939
0.164509
0.310540
0.257492
0.328422
0.362992
0.302792
0.235438
0.129938
0.324845
0.230670
0.322461
0.274777
0.383854
0.284910
0.436902
0.378489
0.303984
0.430942
0.133514
0.381470
0.386834
0.294447
0.245571
0.450611
0.472665
0.420809
0.466704
0.501871
0.382662
0.388622
0.495911
0.645518
0.448823
0.689626
0.597835
0.771880
0.642538
0.738502
0.862479
0.754595
0.909567
1.236796
1.945496
6.679893
33.983588
83.894730
207.292438
334.635973
525.916815
670.668483
791.679025
811.631680
742.456913
627.595782
434.719920
297.025442
155.330896
85.655451
35.000443
15.722513
9.580851
9.429455
9.432435
9.691715
10.083914
10.346770
11.272430
12.287498
15.954971
19.353628
26.702881
33.691525
44.247508
51.802993
60.033798
63.060522
63.149929
##ZVALUE=365
0.270605
0.194907
0.073910
0.121593
0.136495
0.108480
0.007749
0.308752
0.241995
0.175834
0.188947
0.143647
0.116825
0.196695
0.106692
0.237823
0.337958
0.256896
0.295639
0.372529
0.210404
0.277758
0.174642
0.301600
0.334978
0.296831
0.377893
0.153780
0.297427
0.338554
0.352859
0.283718
0.313520
0.568628
0.267625
0.243783
0.450611
0.153780
0.265837
0.329614
0.297427
0.193715
0.337958
0.344515
0.470877
0.418425
0.458956
0.521541
0.417829
0.397563
0.547767
0.513792
0.586510
0.667572
0.657439
0.634789
0.647902
0.745654
0.741482
0.820756
0.853539
1.154542
1.265407
1.256466
2.576709
15.484691
47.150850
135.027766
252.787471
466.575623
625.094771
779.656768
847.621560
801.088810
683.884025
492.893457
352.363586
199.833512
114.322901
46.717525
22.058487
9.649992
8.403659
8.538961
8.860826
8.906722
9.203553
9.148717
10.082722
11.211634
12.847781
17.355680
21.706820
30.486584
37.166476
46.368837
##ZVALUE=370
0.324845
0.145435
0.039935
0.123978
0.238419
0.240803
0.190735
0.236630
0.224710
0.269413
0.261664
0.053644
0.158548
0.214577
0.378489
0.246763
0.240803
0.230670
0.197887
0.218749
0.164509
0.147820
0.118613
0.137687
0.313520
0.222921
0.358820
0.268817
0.332594
0.268817
0.308752
0.287890
0.173450
0.451803
0.323653
0.290871
0.451803
0.061989
0.371933
0.380874
0.310540
0.447631
0.433922
0.615716
0.387430
0.466704
0.429749
0.446439
0.501871
0.533462
0.472665
0.401735
0.451803
0.559688
0.589490
0.569820
0.407696
0.566840
0.469685
0.635982
0.684857
0.835657
0.841618
1.034737
1.191497
1.224875
1.747608
7.905960
28.473735
100.911856
197.275877
385.053754
561.463833
784.917474
880.157948
885.458589
790.631771
595.387816
428.549647
235.179663
134.017467
54.971576
27.656555
12.337565
8.335710
7.656813
7.925630
7.792711
8.106828
8.306503
8.697510
9.076595
9.876490
12.098551
14.720559
20.036697
##ZVALUE=375
0.010729
0.033975
0.107884
0.159740
0.003576
0.099540
0.072718
0.004768
0.098944
0.101924
0.115633
0.057817
0.208616
0.122786
-0.019670
0.258684
0.234842
-0.003576
0.047684
0.010729
0.096560
0.020862
0.065565
-0.018477
-0.007749
0.162721
0.037551
0.074506
0.001788
0.035763
0.081658
0.048876
0.109673
0.275970
0.096560
0.223517
0.164509
0.109673
0.152588
0.132918
0.163913
0.188947
0.162721
0.194907
0.172853
0.190735
0.341535
0.192523
0.205636
0.295639
0.301600
0.270605
0.319481
0.279546
0.247955
0.360608
0.343919
0.365973
0.302792
0.456572
0.384450
0.490546
0.506639
0.453591
0.650883
0.708699
0.826716
0.957847
1.248717
4.053712
15.349984
61.046481
135.580897
306.339860
473.690629
702.526569
819.296837
879.070759
836.972594
666.306019
509.716868
306.024551
191.172957
95.167756
49.507618
17.960668
9.501576
7.110834
6.992817
7.031560
7.183552
7.363558
7.568598
7.771850
8.270741
9.007454
##ZVALUE=380
0.152588
0.111461
0.258684
0.147820
0.140667
0.132918
0.074506
0.142455
0.199676
0.264645
0.227690
0.198483
0.201464
0.107884
0.074506
0.151992
0.091791
0.192523
0.312924
0.217557
0.110865
0.145435
0.281930
0.196695
0.128746
0.234842
0.216961
0.076890
0.305772
0.203848
0.170469
0.266433
0.227690
0.193715
0.238419
0.320673
0.325441
0.242591
0.304580
0.224710
0.247955
0.173450
0.223517
0.165701
0.243783
0.316501
0.360608
0.506639
0.534654
0.423789
0.345707
0.272989
0.341535
0.235438
0.469685
0.315905
0.480413
0.447631
0.464916
0.383854
0.622869
0.489950
0.575781
0.534654
0.636578
0.618696
0.689626
0.887513
1.029968
1.037717
1.406670
2.278686
8.384585
42.661428
102.955699
252.559781
415.411592
643.776655
807.283521
926.449895
917.128921
772.500634
615.682602
395.617485
256.697536
123.064518
64.917803
26.892424
12.670755
6.875992
6.427765
6.472468
6.638765
6.894469
7.049441
7.238984
##ZVALUE=385
0.443459
0.443459
0.237823
0.266433
0.348687
0.459552
0.215769
0.392795
0.327826
0.362992
0.374913
0.338554
0.437498
0.422597
0.404716
0.382662
0.380874
0.263453
0.374913
0.381470
0.412464
0.482798
0.308752
0.414848
0.362992
0.415444
0.308752
0.372529
0.364780
0.430942
0.432730
0.516772
0.510812
0.545979
0.409484
0.555515
0.475645
0.327826
0.465512
0.511408
0.559688
0.400543
0.448823
0.370741
0.324845
0.459552
0.437498
0.449419
0.459552
0.489950
0.410676
0.502467
0.402927
0.443459
0.612736
0.681877
0.564456
0.586510
0.520945
0.633597
0.624657
0.687838
0.501871
0.650883
0.781417
0.791550
0.774860
0.898838
1.144409
1.117587
1.210570
1.321435
1.396537
1.571774
3.816485
21.928549
58.397651
155.901909
289.773941
531.858802
721.508861
910.940766
961.268544
898.354650
775.351524
551.270843
381.009579
201.070905
110.076666
44.767857
19.893646
8.085966
6.305575
5.924702
6.092787
6.288886
##ZVALUE=390
0.171661
0.265837
0.261664
0.266433
0.188947
0.274777
0.167489
0.260472
0.170469
0.270605
0.227690
0.359416
0.437498
0.205636
0.112653
0.181794
0.304580
0.224710
0.227690
0.340939
0.308752
0.398755
0.310540
0.285506
0.249743
0.368953
0.149608
0.327826
0.140667
0.340939
0.262856
0.321865
0.281930
0.306964
0.200868
0.365973
0.285506
0.250936
0.203848
0.395775
0.370741
0.429749
0.323653
0.225902
0.420809
0.385642
0.396967
0.434518
0.333786
0.350475
0.402927
0.387430
0.314713
0.395775
0.474453
0.477433
0.415444
0.406504
0.489950
0.281930
0.336766
0.659823
0.513792
0.579953
0.621676
0.557899
0.610948
0.687838
0.708699
0.874996
0.920892
1.130700
1.096725
1.012683
1.213551
1.369715
2.131462
12.411475
40.978789
127.339959
243.078470
468.034744
637.290478
833.459496
944.857001
979.669690
899.447799
702.904463
532.101989
321.618915
183.366537
71.149468
31.018853
10.130405
6.281734
5.715489
##ZVALUE=395
0.135899
0.118613
0.104904
0.211596
0.117421
0.186563
0.235438
0.212789
0.154972
0.304580
0.305772
0.349879
0.144839
0.174642
0.213981
0.241995
0.178814
0.119805
0.032783
0.214577
0.141859
0.384450
0.239611
0.256896
0.291467
0.163913
0.281930
0.196695
0.305772
0.306964
0.273585
0.267625
0.167489
0.147820
0.298619
0.349879
0.218749
0.156760
0.251532
0.218749
0.181794
0.349879
0.324845
0.392795
0.159740
0.414848
0.339746
0.304580
0.149608
0.249743
0.246763
0.209808
0.399947
0.421405
0.438690
0.291467
0.300407
0.347495
0.481606
0.319481
0.455976
0.484586
0.451803
0.484586
0.648499
0.624657
0.779629
0.601411
0.773668
0.518560
0.762939
0.920892
0.868440
0.963807
0.951886
1.121759
1.100898
1.221895
1.440644
6.786585
26.694536
95.197558
179.480910
345.069766
520.272851
763.397813
908.128023
999.926925
974.164605
823.873878
638.822913
390.515924
241.585970
104.174614
49.724579
16.702414
##ZVALUE=400
0.121593
0.023842
0.121593
0.134706
0.127554
0.176430
0.166893
0.017881
0.267625
0.167489
0.106692
0.088811
-0.031590
0.123978
-0.084639
0.063777
0.131726
0.187755
0.167489
0.087619
0.137687
0.075698
0.191927
0.059605
0.184774
0.088811
0.033975
0.093579
0.275970
0.195503
0.487566
0.104904
0.152588
0.093579
0.153780
0.179410
0.193715
0.073910
0.092983
0.203848
0.301600
0.232458
0.373721
0.250936
0.271797
0.242591
0.290871
0.302792
0.403523
0.368953
0.294447
0.319481
0.223517
0.207424
0.344515
0.354648
0.241995
0.317693
0.417829
0.220537
0.223517
0.328422
0.366569
0.505447
0.436902
0.468493
0.663996
0.529885
0.632405
0.751615
0.694990
0.592470
0.791550
0.732541
0.910759
0.690818
0.841618
0.924468
0.876784
1.010895
1.333952
4.797578
18.225908
65.977573
140.061975
305.976868
479.883552
738.601685
880.381465
978.595614
971.485972
836.409926
678.625703
448.192954
295.635462
151.077509
##END
