##TITLE=QP00652
##FORMAT=SPECTACLE-ASCII V-1.2
##DATA TYPE=ULTRAVIOLET SPECTRUM
##SECOND TYPE=ULTRAVIOLET SPECTRUM
##DATE=01/21/18
##TIME=16:44:25
##SPECTROMETER/DATA SYSTEM=SPECTACLE
##XUNITS=NM EM
##YUNITS=ENERGY
##YFACTOR=1
##FIRSTX=220
##LASTX=410
##NPOINTS=96
##3DDATA=Equidistant
##ZUNITS=NM EX
##FIRSTZ=210
##LASTZ=400
##ZPOINTS=39
##XYDATA=(Y..Y)
##ZVALUE=210
1.369715
1.535416
1.717806
1.316667
1.779795
1.665950
2.230406
1.795888
2.431870
2.028942
1.749992
2.009869
1.670718
1.537800
2.326965
2.433658
2.232790
2.592802
2.740622
2.519488
3.070831
2.788901
3.857613
2.957582
3.261566
3.635883
3.122687
3.715754
3.738999
4.361868
3.411770
3.687739
3.754497
3.756881
4.586577
4.511476
3.937483
4.403591
4.992485
4.812479
4.444718
4.601479
5.339980
4.988909
5.162954
4.981756
5.748868
4.903674
5.461574
5.819798
5.332828
6.220937
6.204844
6.173849
7.092953
7.006526
6.469488
6.158948
6.772876
6.322861
5.343556
7.329583
6.713867
6.372929
7.073879
7.949471
8.190870
10.045767
10.021925
11.119843
13.164878
16.551614
19.472837
22.097826
21.807551
25.150776
23.835897
25.148988
25.939941
24.242997
22.322536
20.407438
18.285513
15.498996
14.145970
10.110736
9.209514
8.497834
8.292794
7.161498
7.500648
6.706715
6.788969
6.989837
7.788539
7.566810
##ZVALUE=215
4.408956
4.864931
4.314780
3.224611
3.221631
3.988743
3.288984
4.160404
3.897548
4.222989
4.105568
3.903508
3.067851
2.688766
2.279878
2.774596
2.299547
1.952648
2.119541
2.298951
3.084540
2.848506
3.071427
4.007816
3.161430
3.123879
3.683567
3.624558
4.008412
4.075766
3.858805
4.450679
4.570484
4.111528
4.763603
4.473925
4.044771
4.889965
5.042553
5.009770
5.111694
5.130768
4.821420
4.840493
6.050467
5.288720
5.544424
5.420446
5.969405
5.541444
6.602407
5.596876
6.217957
5.697608
6.416440
7.143617
6.548762
6.840825
7.327795
6.749630
7.190704
7.275939
7.314682
8.015633
6.731749
7.792711
7.789731
8.925796
10.425448
11.867881
12.555718
14.349818
16.792417
19.506812
19.928813
23.194551
24.268627
22.330880
23.455620
19.711852
18.505454
16.678572
16.751885
13.859868
12.293458
10.931492
10.149479
8.182526
7.340908
7.282495
6.998777
6.091595
7.025599
6.149411
7.028580
6.517768
##ZVALUE=220
15.309453
14.285445
16.368628
17.501712
16.743541
14.543533
12.791753
9.772778
8.592606
8.503795
9.075999
9.945631
10.167956
10.358691
8.803606
7.290840
4.089475
3.416538
3.278852
2.466440
3.387928
3.501773
3.764629
3.898740
3.627539
4.492998
3.655553
3.831983
3.849864
4.155636
3.761649
4.763603
4.379749
4.515648
4.620552
5.286932
4.505515
4.833937
5.335808
4.509687
4.884601
5.706549
4.861951
4.697442
4.787445
5.986691
6.820560
6.297827
6.530881
7.117987
6.867647
5.977750
7.280707
6.684661
6.181598
6.247759
7.173419
7.237792
7.228851
8.100867
7.193685
7.168651
7.767677
7.715821
7.620454
8.824468
8.929968
7.825494
9.827614
11.402965
12.714863
14.269948
15.084743
19.280910
20.377636
18.797517
19.895434
19.884706
20.163655
20.244718
18.402934
17.664433
15.633702
13.298988
12.145638
11.058450
9.410977
9.250641
8.214712
7.848740
6.297827
7.187724
7.909536
6.666780
6.757975
6.968975
##ZVALUE=225
27.167797
26.564598
41.248798
49.116611
56.013465
58.190823
53.532720
48.662424
34.449697
28.589964
23.062825
21.170974
21.281838
23.368597
26.566982
20.760894
19.015670
15.454888
12.179613
8.382797
5.484819
4.866719
4.285574
3.788471
3.936887
4.258752
3.852844
4.848838
4.547834
4.880428
4.688501
4.824996
4.644990
5.155802
5.151629
5.060434
5.514622
5.317926
5.694628
5.969405
6.570816
6.118417
5.642772
5.643964
4.898906
6.583929
5.934834
6.437898
7.393956
5.875826
6.590486
7.876754
6.755590
7.591844
6.614923
7.057786
7.566810
7.595420
8.185506
7.455945
6.845593
7.330775
7.190704
9.078979
8.559823
8.325577
8.412600
8.021593
9.310842
10.931492
13.456941
14.689565
16.021729
17.296672
16.725659
18.785000
19.248724
19.425750
20.538568
16.001463
16.919971
14.091730
13.510585
13.002753
12.570620
12.015700
9.767413
8.852482
9.107590
8.632541
8.234978
9.030700
7.713437
8.869767
8.660555
9.029508
##ZVALUE=230
25.770664
28.665662
47.783852
81.253648
110.569596
141.029954
160.431862
163.526535
148.041844
125.905871
92.316866
69.296956
48.724413
45.205951
43.224692
46.074986
49.859881
48.593879
43.991804
35.258532
26.664734
16.417503
12.146831
6.256700
5.412698
4.868507
4.613996
4.924536
4.860759
5.456805
5.515814
4.950762
5.799532
5.699992
5.492568
5.799532
5.522966
6.339550
6.262660
6.488562
6.454587
6.158948
5.767941
6.016493
6.421804
6.180406
6.521940
7.035732
6.504655
6.528497
7.887483
6.921887
7.174611
7.184744
7.287860
7.243752
8.704662
8.540750
7.664561
8.568764
8.375645
8.613467
8.992553
10.124445
9.448528
10.137558
10.621548
9.810925
11.929870
13.056993
14.322996
17.467737
18.134713
18.565655
19.993782
19.369721
21.572709
19.908547
18.956661
18.202662
16.971827
15.528798
16.590953
14.958978
14.114976
13.626814
13.181567
11.092424
13.347864
11.157990
11.084676
10.338426
10.443926
10.503531
11.968613
11.105537
##ZVALUE=235
8.887649
9.270906
27.397871
52.392483
103.184581
156.649947
230.978727
283.215642
336.822867
335.389972
295.166969
250.265002
188.974738
121.435523
89.820623
73.593855
70.076585
78.477859
81.280470
82.582831
79.716444
66.192746
49.212575
36.494732
22.978783
15.116930
10.021925
7.307529
6.301999
6.605983
6.152987
5.860925
7.069707
6.557703
6.973743
5.814433
7.539988
6.089807
6.067753
6.280541
7.005930
7.047653
6.523728
6.540418
6.316900
7.722974
7.427931
7.540584
7.174611
7.284880
7.471442
8.487701
8.102655
8.360744
8.555651
8.918643
8.779764
7.867813
10.355711
9.304881
9.836555
11.514425
8.944869
12.272596
10.911822
11.424422
11.233687
13.139844
14.369488
15.886426
16.720891
18.537641
19.375682
21.961927
24.466515
22.939444
22.902489
23.072958
22.973418
21.311641
20.439625
19.221902
19.769669
17.713904
16.973615
16.440749
17.005801
16.863942
16.329885
14.917850
16.210675
16.323924
15.113950
16.294718
15.940666
15.704632
##ZVALUE=240
1.849532
1.595616
4.063845
12.520552
36.938787
72.214603
155.515671
235.309601
358.340740
453.923941
525.396466
539.855957
499.794483
403.747559
317.621827
205.172896
154.155493
108.667612
98.896623
100.339651
111.132860
121.235847
115.885735
105.575919
83.581805
66.393614
45.501590
31.744838
18.336773
12.479424
9.995699
8.029938
8.055568
7.203817
6.520748
6.649494
7.024407
7.407665
6.704926
7.216930
7.543564
6.565452
6.975532
6.437898
6.710887
7.142425
6.585717
7.378459
7.403493
7.557869
8.653998
8.501410
7.166862
8.050799
8.565784
8.347631
10.464787
8.419752
9.829998
9.371638
10.050535
10.818839
9.532571
12.672544
12.394786
12.765527
13.854504
15.471578
16.133785
18.554926
18.924475
20.392537
21.841526
22.813678
25.293827
26.762486
27.394891
24.594665
25.402904
25.117993
25.426745
21.727681
21.896958
22.517443
18.484592
19.388795
19.649863
19.835830
18.572807
19.058585
18.390417
18.781424
17.076731
19.132495
18.185973
19.028783
##ZVALUE=245
1.234412
1.531839
1.223683
1.400709
3.714561
9.422898
32.501817
69.743991
164.315701
259.487629
400.244594
502.002835
588.390827
620.652437
594.943762
503.929853
415.194631
290.365815
205.997825
133.764744
107.507706
99.928975
117.296576
129.169822
133.639574
126.289725
115.551949
98.259449
70.817471
53.302646
38.025975
22.366643
14.052987
9.786487
7.731915
7.506609
7.797480
7.096529
7.166862
6.329417
6.216764
6.273985
6.822944
6.307960
6.671548
6.230474
6.994605
6.165504
6.352663
6.890893
6.984472
6.790757
7.019639
7.219911
7.349849
7.832646
6.842613
7.767677
8.792877
8.249879
8.322597
9.122491
9.509921
10.388494
10.465980
10.138750
12.194514
12.979507
13.607740
16.275644
16.439557
18.594861
20.045638
22.998452
23.573637
24.290681
22.268891
24.261475
23.007989
22.689700
21.281838
22.438765
20.713806
20.420551
20.703673
19.986629
19.067526
19.545555
19.588470
17.689466
18.068552
18.733740
18.040538
18.150806
19.414425
17.083883
##ZVALUE=250
1.055598
1.155734
1.259446
1.246929
1.755953
1.291633
1.852512
7.039905
27.860999
60.461760
155.864954
259.348750
386.845469
570.245981
683.615804
769.371986
774.994493
690.109730
579.425693
401.172638
278.106928
188.183784
116.626620
96.395612
110.399723
122.056603
139.041543
142.804980
135.320425
125.220418
100.803971
78.451633
58.550835
34.655929
22.939444
13.115406
9.919405
7.661581
6.978512
5.954504
6.789565
6.331801
6.364584
6.245971
5.584955
6.083846
5.620718
5.825758
5.863905
5.611777
6.198883
6.496906
6.331801
6.179810
6.697774
6.176829
6.969571
7.347465
7.059574
8.314848
8.214712
7.586479
8.718967
9.136796
9.625554
9.983778
10.074973
12.890697
12.117624
14.538765
15.687943
17.747879
18.580556
19.598603
20.754933
20.874739
21.243691
22.043586
21.877885
21.128654
19.468665
18.956661
18.811822
18.175840
19.235611
18.256903
17.454624
18.693805
19.767880
18.164515
18.839836
18.595457
17.832518
17.907619
18.485785
19.082427
##ZVALUE=255
0.961423
0.851750
1.120567
0.978708
0.940561
1.116991
1.311898
1.157522
1.637936
3.664494
18.905401
50.040483
103.164911
237.310529
385.990739
615.789890
794.374943
945.988894
1010.989547
957.717896
833.670497
659.054518
413.059592
258.983970
136.698484
97.126961
93.048811
106.452703
131.711960
143.133998
149.122477
142.458677
133.434534
105.770826
83.558559
56.303740
37.928820
20.486712
14.247894
8.111000
6.984472
6.218553
5.829930
5.580783
6.576777
5.769730
5.490780
5.386472
5.843639
5.477667
5.831718
5.849600
5.776882
5.633831
6.522536
7.108450
6.510615
6.223917
7.185936
7.244945
7.210970
7.746816
7.861853
7.852912
8.080602
8.405447
9.609461
10.973811
12.122989
12.521744
13.900995
15.232563
16.448498
17.393827
18.064976
18.102527
19.251704
18.137693
17.877817
18.628836
18.873811
16.699433
17.909408
17.728806
16.714931
18.188953
17.157793
16.726851
17.373562
17.163754
16.996861
17.905831
16.930699
17.582774
16.518831
17.094612
##ZVALUE=260
0.761747
1.099706
0.687838
0.825524
1.064539
1.080632
1.059771
0.765920
1.009703
1.384616
1.376867
2.287626
8.210540
34.174919
77.395439
180.821419
306.538939
508.222580
678.975582
895.637870
994.213820
1014.433503
902.425647
744.720697
490.904450
329.376459
189.300776
115.523934
80.639720
86.690784
109.899640
129.056573
144.710541
154.984593
152.382851
130.344629
111.237764
81.291795
58.883429
35.238862
23.114681
11.747479
8.081794
5.974770
5.586743
5.391836
5.422831
5.310774
5.248785
5.432963
5.449653
5.454421
5.544424
5.938411
5.418658
5.636811
5.964637
6.110668
6.498694
6.106496
6.580949
6.925464
6.910563
6.983876
7.207990
8.527637
8.725524
9.017587
9.856820
11.274815
11.323690
13.562441
13.792515
14.887452
15.639663
15.910864
14.498830
16.388893
16.469955
16.298890
16.213655
15.809536
15.109777
15.847683
16.192794
15.234947
15.053749
15.445948
15.477538
16.647577
15.357733
16.581416
15.976429
16.479492
16.541481
16.140938
##ZVALUE=265
0.842810
0.834465
0.989437
0.631809
0.982881
0.870824
0.889897
0.744462
1.053810
0.957847
1.152754
1.346469
1.461506
1.844764
3.811717
23.769736
57.557821
151.599646
266.394615
504.813790
715.497732
900.336504
1015.943885
1015.943885
997.218490
849.398971
620.658994
435.616970
240.130424
148.086548
95.824003
72.286725
82.394481
112.366676
134.265423
154.829621
158.347487
147.573948
133.057833
106.294751
83.958507
54.397583
36.501884
20.976663
13.468862
7.135868
5.863905
5.568862
5.445480
4.878640
5.814433
5.806684
5.945563
6.085634
6.258488
5.682707
5.936623
6.213784
6.330609
6.212592
6.020665
6.438494
6.692410
6.405711
7.334948
7.287860
7.554889
8.286834
9.649992
10.097623
11.865497
12.363791
13.080835
13.373494
13.957620
14.406443
15.191436
14.283657
14.278889
14.965534
13.463497
13.546944
14.479756
13.987422
14.526844
14.059544
14.750957
14.515519
15.080571
15.153885
15.672445
14.311671
15.490651
15.219450
15.109777
15.307665
##ZVALUE=270
0.623465
0.782609
0.618696
0.688434
0.783801
0.651479
0.689626
0.893474
0.770688
0.847578
0.853539
1.323819
1.155734
1.190901
1.451969
1.595616
2.080798
9.373426
30.353665
106.056929
207.207799
359.748006
646.319985
877.718925
1015.944481
1015.944481
1015.944481
1015.944481
858.843923
658.766627
404.698849
247.719884
139.843822
71.069598
65.037608
86.725950
108.448863
137.730837
151.270628
157.180429
151.581764
131.912827
111.976862
79.524517
58.318973
34.228563
23.152828
12.859702
8.574724
6.361604
5.265474
5.533695
5.232692
5.620718
5.759597
5.591512
5.866885
5.592704
6.073713
6.194711
6.064773
6.463528
6.097555
6.629825
6.923676
6.847978
7.851720
7.529855
8.375645
9.307861
10.742545
10.627508
11.311769
12.215972
12.438893
13.326406
13.611913
13.458729
13.543963
12.272000
12.400746
12.904406
12.927651
12.679696
12.716651
12.541413
12.617707
12.513995
13.113618
13.502836
13.700724
13.698936
13.575554
13.994575
13.599992
13.520718
##ZVALUE=275
0.641942
0.813603
0.593662
0.660419
0.769496
0.635982
0.654459
0.867844
0.799894
0.856519
0.700951
0.836849
0.928640
1.118779
1.020432
1.216531
1.443624
1.724958
1.579523
4.056692
16.959906
49.314499
152.058601
292.887688
569.649935
795.938969
1015.943885
1015.943885
1015.943885
1015.943885
1015.943885
845.381618
598.659515
315.999985
180.268884
79.759955
52.871704
59.921741
80.196857
109.159946
129.526854
149.425864
155.627728
147.872567
132.637620
102.826953
83.113909
57.264566
39.290786
22.333860
14.985800
8.641481
6.645918
5.837679
5.424619
5.542636
5.596876
5.385876
6.077886
5.636811
6.044507
6.646514
6.306767
6.393790
6.665587
6.974936
7.351637
7.797480
8.221865
8.493662
9.669662
10.224581
10.959506
11.582971
12.960434
12.560487
12.261868
13.062954
12.851954
12.239814
12.772679
11.927485
12.118816
12.635589
12.286901
12.453794
12.005568
12.653470
12.355447
12.523532
12.409687
12.642741
12.602806
12.863874
12.941957
12.686849
##ZVALUE=280
0.621676
0.648499
0.834465
0.612736
0.394583
0.492930
0.711679
0.724792
0.744462
0.641942
0.911951
0.797510
0.720620
1.002550
0.833869
0.904799
0.925660
1.069903
1.046658
1.471639
1.539588
2.130866
10.700822
36.596656
119.264722
227.171779
444.603562
672.766566
987.933874
1015.944481
1015.944481
1015.944481
1015.944481
914.950967
672.300458
377.906561
223.871469
100.186467
54.172873
43.042898
55.710673
81.509948
104.796886
131.352544
145.493746
151.152611
145.927668
129.882693
108.567476
79.140663
59.218407
36.549568
24.353862
13.233423
9.287000
6.883740
5.887747
5.981922
5.856752
5.958676
6.080866
6.315708
6.419420
6.872416
6.826520
6.943941
7.333755
7.531643
8.127689
8.950830
9.678602
9.919405
10.165572
10.853410
11.019707
11.541843
11.759996
12.229681
11.564493
11.879802
11.724830
11.837482
11.440516
11.771917
12.108684
11.193752
11.800528
11.537671
11.474490
11.479855
11.474490
11.859536
11.843443
12.155771
11.922717
12.159944
##ZVALUE=285
0.565648
0.442863
0.382662
0.527501
0.716448
0.550747
0.575781
0.734925
0.632405
0.629425
0.619888
0.631809
0.825524
0.631809
0.787973
0.789762
0.895858
0.578761
0.965595
1.021624
1.333952
1.255870
1.481771
1.550913
6.066561
21.485686
73.329806
155.832767
337.055922
536.535978
829.898715
1015.943885
1015.943885
1015.943885
1015.943885
1015.943885
786.589980
548.649430
290.540457
166.781545
72.484612
40.256977
36.577582
51.140785
78.880787
99.774599
126.684904
140.063763
148.113966
144.150853
128.466487
110.148787
82.640648
60.809851
38.525462
26.052594
14.081597
9.999871
6.919503
6.328821
6.166697
6.234646
6.469488
6.900430
6.780624
6.941557
7.335544
7.996559
7.998943
8.774996
9.262562
9.887815
10.387897
10.823607
11.545420
11.264682
11.263490
11.591911
11.577606
12.100935
11.665821
11.401772
11.712909
11.022687
11.403561
11.126995
11.781454
11.206865
11.420846
11.987686
11.542439
12.036562
11.468530
11.790991
11.534691
11.238456
##ZVALUE=290
0.322461
0.584722
0.478625
0.587702
0.465512
0.538826
0.442863
0.674725
0.581741
0.567436
0.608563
0.663996
0.735521
0.606775
0.649691
0.670552
0.670552
0.864863
0.831485
1.041889
1.191497
1.048446
1.136661
1.291633
1.774430
1.511574
2.613664
11.413693
54.399967
117.722750
216.966867
438.066721
666.173697
984.389782
1015.946865
1015.946865
1015.946865
1015.946865
996.761918
694.656968
461.915731
237.506628
129.951835
50.744414
29.952526
35.550594
49.049854
71.884990
94.009638
119.341612
134.693980
144.110918
141.076446
124.043822
107.854009
79.230666
59.252977
38.045645
25.823712
15.007854
10.632873
7.662773
7.299781
6.892681
6.826520
7.439852
7.688999
8.087754
8.516908
9.267926
9.533763
10.215640
10.611415
11.061430
11.167526
11.368990
11.217594
11.404753
10.829568
11.060834
11.047721
11.122823
11.543632
10.954738
11.330843
11.697412
11.224747
11.594892
11.523962
11.148453
11.239648
11.531711
11.407733
11.293888
11.534691
10.886788
##ZVALUE=295
0.474453
0.562668
0.324845
0.574589
0.636578
0.394583
0.560880
0.535846
0.429749
0.464916
0.540614
0.548959
0.550747
0.680685
0.613928
0.630617
0.747442
0.729561
0.816584
0.762939
1.082420
0.955462
0.947714
0.901818
1.252890
1.427531
1.389980
1.639724
1.809597
3.908873
25.134683
74.838996
170.294642
382.739902
608.529449
971.743464
1015.943885
1015.943885
1015.943885
1015.943885
1015.943885
921.261907
625.904799
306.729674
160.254836
58.001876
28.324723
22.098422
29.534698
47.899485
64.990520
91.725588
110.819936
129.396915
137.155652
132.081509
121.363997
99.684596
79.673529
57.220459
40.100813
23.973584
16.430616
10.809898
8.804798
8.352995
8.127689
8.141994
8.713603
9.300709
10.101795
10.827780
11.011958
11.494756
11.607409
11.743903
11.967421
11.121631
11.498928
11.697412
11.310577
11.649728
11.618733
11.974573
11.535883
11.693835
11.816621
11.616945
11.310577
11.188984
11.435747
11.316538
11.193752
11.093616
11.689663
10.717511
##ZVALUE=300
0.391603
0.325441
0.437498
0.504851
0.513792
0.452995
0.530481
0.601411
0.480413
0.490546
0.503659
0.542998
0.481606
0.519753
0.441670
0.632405
0.735521
0.664592
0.578761
0.842810
0.790954
0.900626
1.056790
0.872612
1.135468
1.207590
1.270771
1.207590
1.565814
1.733899
1.743436
2.135634
7.152557
43.368936
115.190744
300.544500
512.743592
877.167583
1015.944481
1015.944481
1015.944481
1015.944481
1015.944481
1003.974676
739.980936
400.622487
227.817893
94.892979
43.224692
19.468665
18.147826
28.098822
40.242672
62.224865
80.941916
106.070638
119.714737
129.385591
128.050447
116.055608
100.558996
76.482892
59.332848
39.130449
27.170777
16.810894
12.684464
10.080934
9.173751
9.455681
10.230541
10.369420
10.588765
11.427999
11.424422
11.936426
11.511445
11.366606
11.307597
11.621714
11.870861
11.890531
11.817813
11.632442
11.881590
11.590719
11.319518
11.449456
11.843443
11.448860
11.353493
11.282563
11.539459
11.351705
11.314750
10.952950
##ZVALUE=305
0.319481
0.503659
0.427961
0.462532
0.477433
0.588894
0.480413
0.524521
0.476837
0.412464
0.513792
0.519753
0.471473
0.476837
0.562668
0.626445
0.579953
0.663996
0.750422
0.837445
0.747442
0.998974
0.864863
0.820756
0.990629
0.993609
1.116991
1.056790
1.313686
1.371503
1.462698
1.409650
2.020597
2.051592
3.928542
27.619600
79.315901
237.924457
437.954664
814.684033
1015.945673
1015.945673
1015.945673
1015.945673
1015.945673
1015.945673
963.041782
590.684414
352.622867
147.529840
68.226457
23.368001
15.011430
18.404722
25.198460
41.780472
57.761669
80.386996
98.374486
115.566850
123.530626
121.001601
111.667514
94.314814
78.637004
55.570602
40.187836
26.150942
18.678904
13.652444
12.021661
11.144876
11.663437
11.733770
11.801720
11.950731
11.967421
11.493564
11.874437
11.531711
11.822581
12.319684
11.935830
12.151599
12.118816
12.047887
12.036562
11.960864
11.909604
12.027621
11.668801
11.594892
11.694431
11.335611
11.412501
11.605620
##ZVALUE=310
0.449419
0.423789
0.432730
0.562668
0.433922
0.475645
0.559688
0.599623
0.334978
0.380874
0.568628
0.475645
0.345707
0.546575
0.397563
0.597835
0.624657
0.568628
0.606775
0.668764
0.685453
0.489950
0.641942
0.714660
0.691414
0.727773
1.030564
1.034737
1.185536
0.949502
1.150966
1.225471
1.539588
1.352429
1.584888
2.014637
2.394915
11.611581
42.107701
150.043964
302.719474
644.017458
967.118740
1015.943885
1015.943885
1015.943885
1015.943885
1015.943885
1015.943885
843.090415
542.119741
258.568525
129.422545
42.681694
17.997622
12.560487
15.928745
24.373531
35.294890
54.732561
70.141554
92.352629
106.153488
116.701722
117.711425
107.706785
95.146894
74.883699
58.177710
39.070845
28.443933
20.134449
16.549826
13.081431
12.520552
11.859536
11.786819
11.634827
12.127757
11.591911
11.799932
12.266636
11.951923
12.219548
12.384653
12.302995
12.326837
12.371540
12.038946
12.076497
11.868477
11.809468
11.524558
11.597872
11.350513
11.272430
##ZVALUE=315
0.455976
0.398755
0.354648
0.428557
0.552535
0.396967
0.485778
0.564456
0.513792
0.438690
0.462532
0.332594
0.269413
0.456572
0.364780
0.544786
0.600815
0.633597
0.394583
0.571609
0.671744
0.683665
0.858903
0.671744
0.731945
0.750422
0.895858
0.763535
0.738502
0.926852
1.050830
1.086593
1.210570
1.227856
1.686811
1.685619
1.784563
2.128482
2.239943
5.294681
21.407604
100.613832
231.730938
553.949475
904.040933
1015.942693
1015.942693
1015.942693
1015.942693
1015.942693
1015.942693
1015.942693
805.210471
409.815907
213.255882
72.469711
27.689934
12.512803
11.834502
15.890598
21.512508
35.019517
48.247576
67.659616
83.974004
103.200674
110.351443
112.120509
104.902983
89.116693
74.621439
55.287480
41.589737
28.167963
21.032691
15.494823
13.897419
12.327433
11.985898
11.790991
12.184978
11.999607
12.329817
12.122989
12.065768
12.095571
12.095571
11.926889
12.078881
12.308955
12.075901
11.783838
12.170672
11.431575
11.856556
11.553764
##ZVALUE=320
0.251532
0.385642
0.347495
0.373721
0.347495
0.328422
0.137687
0.291467
0.274777
0.416636
0.411868
0.521541
0.307560
0.322461
0.446439
0.379682
0.414848
0.411868
0.344515
0.423789
0.571609
0.401735
0.617504
0.452995
0.685453
0.629425
0.701547
0.700951
0.720620
0.778437
0.729561
0.809431
0.764728
0.755787
0.963807
0.946522
1.268983
1.341701
1.393557
1.763701
1.936555
2.566576
7.882714
47.291517
132.007599
371.459723
657.121539
1015.861630
1015.861630
1015.861630
1015.861630
1015.861630
1015.861630
1015.861630
927.553773
490.461588
268.801451
109.050870
47.027469
15.004873
10.333657
11.458993
13.554692
20.475984
28.969646
45.847893
60.753822
81.002712
94.540715
104.995966
106.062889
101.401806
90.286732
71.240664
55.842996
38.998723
28.346777
20.557642
16.359687
13.195872
12.257695
12.460947
12.152791
11.852980
12.014508
12.313724
11.994839
12.368560
12.333989
11.693835
11.968613
11.973977
11.738539
11.413693
11.720657
11.519790
##ZVALUE=325
0.415444
0.341535
0.565648
0.363588
0.489950
0.417829
0.572801
0.466704
0.450611
0.508428
0.642538
0.447631
0.464916
0.302792
0.428557
0.285506
0.449419
0.553727
0.530481
0.523925
0.496507
0.539422
0.580549
0.480413
0.628829
0.598431
0.687838
0.688434
0.827909
0.805855
0.993609
0.855923
0.989437
1.014471
1.041889
0.944734
1.184940
1.203418
1.324415
1.436472
1.771450
1.798868
2.093911
2.476573
5.907416
22.296906
90.424418
204.241872
497.139692
853.182673
1015.943885
1015.943885
1015.943885
1015.943885
1015.943885
1015.943885
1015.943885
744.226575
380.545855
200.316906
68.115592
26.873946
11.448860
10.276437
11.355877
13.627410
20.156503
29.036999
45.499802
59.816837
80.283880
91.327429
99.796653
100.831985
93.962550
83.502531
66.617727
52.503943
36.463737
27.055740
19.440651
15.762448
13.453960
12.862682
12.193918
12.290478
12.285709
12.225509
12.071729
11.856556
11.912584
11.508465
11.114478
11.413693
11.655688
11.296868
##ZVALUE=330
0.401735
0.350475
0.271797
0.211596
0.359416
0.283718
0.336766
0.381470
0.423789
0.274777
0.252724
0.334978
0.247955
0.560880
0.401735
0.487566
0.577569
0.379682
0.410676
0.406504
0.455976
0.530481
0.571609
0.674725
0.622869
0.512600
0.644922
0.561476
0.608563
0.569820
0.738502
0.664592
0.716448
0.768900
0.910759
0.926852
0.939965
0.979900
1.150966
1.072884
1.100898
1.428723
1.568794
1.730919
1.923442
2.142787
3.003478
13.666749
45.801401
158.771873
318.687558
692.391992
1013.415456
1015.943885
1015.943885
1015.943885
1015.943885
1015.943885
1015.943885
922.515988
587.580800
268.889666
134.566426
43.456554
16.848445
9.912848
9.844899
10.818839
13.541579
20.359755
28.725863
42.921901
56.723952
74.502826
85.308552
95.244646
95.010996
87.356567
78.963637
62.210560
48.711896
34.450889
26.837587
19.907951
16.088486
13.497472
12.543797
12.432933
11.618733
11.965632
11.643767
11.356473
11.565685
11.086464
11.197925
11.219978
##ZVALUE=335
0.254512
0.265837
0.303984
0.313520
0.104904
0.266433
0.270605
0.474453
0.432730
0.282526
0.459552
0.295639
0.272989
0.471473
0.336766
0.402927
0.477433
0.440478
0.332594
0.483990
0.444651
0.260472
0.526905
0.572801
0.473857
0.645518
0.540614
0.646710
0.598431
0.622869
0.514984
0.547767
0.565648
0.661612
0.685453
0.788569
0.989437
0.970960
1.075864
1.003742
1.095533
1.202822
1.292825
1.284480
1.632571
1.568794
2.036691
2.061725
2.366900
5.378723
36.615729
103.235841
294.672847
538.076758
983.861685
1015.943885
1015.943885
1015.943885
1015.943885
1015.943885
1015.943885
1015.943885
730.668902
434.623957
175.749660
77.185631
22.648573
11.504889
10.003448
10.116696
11.989474
13.901591
20.026565
27.376413
41.381717
52.758455
69.117546
79.959631
88.407993
88.745952
82.156658
73.723793
60.862899
48.709512
35.660863
27.646422
19.498467
15.824437
13.421774
11.948943
11.421442
11.118650
11.084676
10.774732
10.782480
11.120439
##ZVALUE=340
0.470877
0.399947
0.238419
0.229478
0.435710
0.491738
0.348687
0.372529
0.531673
0.322461
0.410676
0.333786
0.306964
0.442863
0.488758
0.554919
0.487566
0.472665
0.446439
0.436902
0.590682
0.584722
0.405908
0.544786
0.535846
0.554919
0.572801
0.549555
0.670552
0.601411
0.576973
0.682473
0.623465
0.772476
0.725985
0.752807
0.916719
0.999570
0.901818
1.045465
0.971556
1.055598
1.062751
1.148582
1.278520
1.473427
1.444817
1.765490
1.887679
2.113581
2.570748
4.048944
14.711618
85.790753
217.040777
543.657541
923.866034
1016.019583
1016.019583
1016.019583
1016.019583
1016.019583
1016.019583
1016.019583
831.443667
410.705805
223.418474
83.618760
32.248497
12.154579
10.526776
10.620952
10.785460
11.743903
14.250875
19.961596
26.402473
38.701892
50.571561
67.141652
76.487660
83.354712
83.476901
78.641772
70.742965
58.287978
47.372580
34.436584
26.663542
19.893646
15.816689
12.919903
11.462569
10.995865
10.897517
10.651946
##ZVALUE=345
0.381470
0.245571
0.297427
0.280738
0.275970
0.213981
0.382662
0.430942
0.416636
0.389814
0.403523
0.264645
0.414848
0.403523
0.469685
0.432730
0.283718
0.334978
0.392795
0.422597
0.351667
0.345707
0.459552
0.435710
0.456572
0.586510
0.390410
0.426769
0.571609
0.397563
0.468493
0.475645
0.647902
0.614524
0.621676
0.711679
0.649691
0.727773
0.612736
0.681877
0.754595
0.809431
0.849962
0.980496
0.974536
1.097918
1.136661
1.320839
1.582503
1.636744
1.743436
1.971722
2.215505
2.800822
6.256700
40.653944
124.703646
365.774632
663.371682
1015.943885
1015.943885
1015.943885
1015.943885
1015.943885
1015.943885
1015.943885
1015.943885
644.251704
354.425907
137.172937
59.697628
18.662810
11.831522
10.752678
10.568500
10.458827
11.144876
13.534427
17.059445
25.866628
34.909844
48.786998
58.291554
69.007874
74.902773
77.694654
74.886680
65.320730
57.703853
45.021772
35.411716
24.903417
19.612908
14.493465
12.486577
11.422634
##ZVALUE=350
0.339746
0.317693
0.260472
0.266433
0.255704
0.330806
0.426769
0.263453
0.309944
0.299811
0.344515
0.252724
0.438690
0.229478
0.396967
0.199676
0.261664
0.373721
0.288486
0.431538
0.438690
0.468493
0.340939
0.359416
0.336766
0.466704
0.469685
0.583529
0.549555
0.514984
0.716448
0.494719
0.439882
0.750422
0.710487
0.600815
0.568628
0.771880
0.723600
0.701547
0.727773
0.731945
0.788569
0.873804
0.937581
0.858903
0.932813
1.042485
1.041889
1.172423
1.440644
1.426935
1.711845
1.719594
2.056956
2.315640
3.494620
20.312667
69.757700
222.710967
421.412587
835.868716
1015.944481
1015.944481
1015.944481
1015.944481
1015.944481
1015.944481
1015.944481
762.708783
450.046659
196.487904
88.247657
24.618506
12.279749
9.593964
9.308457
8.907914
9.178519
10.352731
12.043715
16.923547
22.609830
32.007694
40.702820
52.263737
61.597824
69.391727
70.704818
68.762898
63.155890
52.071810
43.435693
32.033920
25.523901
18.502474
##ZVALUE=355
0.376701
0.315905
0.291467
0.189543
0.458956
0.336766
0.359416
0.238419
0.394583
0.328422
0.385642
0.522733
0.285506
0.375509
0.379682
0.296831
0.485778
0.518560
0.331998
0.572801
0.429749
0.596642
0.409484
0.429749
0.480413
0.475645
0.594854
0.470877
0.515580
0.445843
0.623465
0.524521
0.646710
0.643730
0.684857
0.544786
0.686646
0.566840
0.648499
0.587702
0.810623
0.759959
0.620484
0.685453
0.841618
0.820756
1.176596
0.986457
1.016855
1.234412
1.204610
1.373887
1.497865
1.445413
1.643896
1.921654
1.956820
2.192855
2.841949
8.879900
35.222769
144.478679
297.931433
630.337596
974.130630
1015.943885
1015.943885
1015.943885
1015.943885
1015.943885
1015.943885
946.307778
569.753647
239.759684
112.163424
33.866763
14.024973
9.563565
8.905530
8.686781
8.554459
9.196997
9.675622
11.585951
14.230609
20.436645
26.698709
37.199855
45.275688
55.690408
61.551929
64.582825
62.774420
56.968927
49.857497
40.026903
##ZVALUE=360
0.279546
0.464916
0.245571
0.304580
0.177622
0.259876
0.335574
0.389814
0.445843
0.248551
0.351667
0.366569
0.430942
0.372529
0.419617
0.403523
0.438690
0.531673
0.423789
0.457764
0.450611
0.436902
0.480413
0.468493
0.493526
0.463724
0.484586
0.549555
0.487566
0.473857
0.531673
0.470877
0.586510
0.582933
0.589490
0.617504
0.545979
0.711679
0.703931
0.697970
0.653863
0.739694
0.576973
0.605583
0.713468
0.792742
0.764728
0.938773
0.908971
0.930429
1.106858
1.176596
1.274943
1.361966
1.521707
1.542568
1.491904
1.971722
1.905560
2.095699
2.811551
3.471971
17.240644
61.124563
214.656591
417.180657
813.661814
1015.944481
1015.944481
1015.944481
1015.944481
1015.944481
1015.944481
1012.249589
612.498522
355.162621
143.128633
59.745908
17.325878
9.785891
8.432865
8.215904
8.096695
7.790923
7.994771
8.152723
9.803772
11.619925
16.999841
22.550821
30.816793
38.422942
48.208833
54.007769
58.210492
58.689713
##ZVALUE=365
0.298619
0.218749
0.379682
0.298619
0.298619
0.489950
0.297427
0.271797
0.431538
0.408888
0.396967
0.487566
0.311732
0.436902
0.366569
0.394583
0.307560
0.418425
0.421405
0.332594
0.427961
0.507832
0.298619
0.522733
0.478625
0.620484
0.584722
0.487566
0.475645
0.534654
0.539422
0.561476
0.360608
0.519753
0.719428
0.709891
0.547767
0.440478
0.597835
0.665784
0.632405
0.560880
0.745654
0.766516
0.807643
0.772476
0.895858
0.849962
0.835657
1.054406
0.888705
0.980496
1.065731
0.942945
1.280904
1.347661
1.389980
1.459718
1.702905
1.800656
1.803637
2.208948
2.412796
2.872944
5.862713
34.896731
103.283525
302.276611
560.929775
984.935760
1015.943885
1015.943885
1015.943885
1015.943885
1015.943885
1015.943885
974.203944
536.223650
281.180739
94.206929
32.779574
10.314584
8.197427
7.861853
7.526875
7.147789
7.137656
7.144809
7.478595
8.520484
10.328889
14.398694
18.656850
26.174784
33.397675
41.689873
##ZVALUE=370
0.261664
0.270605
0.177622
0.270605
0.267625
0.410676
0.279546
0.575781
0.308752
0.414848
0.267625
0.413656
0.411868
0.395775
0.234842
0.410676
0.319481
0.337958
0.355840
0.368953
0.502467
0.354648
0.441670
0.525713
0.346899
0.462532
0.435710
0.486970
0.528693
0.626445
0.562668
0.403523
0.518560
0.543594
0.507832
0.437498
0.492930
0.498891
0.572801
0.579953
0.839829
0.456572
0.711679
0.718832
0.713468
0.785589
0.833869
0.747442
0.726581
0.777841
0.865459
1.033545
0.915527
0.948906
1.033545
1.045465
1.051426
1.294613
1.371503
1.325607
1.589656
1.575947
1.927614
2.275705
2.475977
2.886653
4.131794
13.614893
73.333979
180.053711
433.934927
753.829479
1015.944481
1015.944481
1015.944481
1015.944481
1015.944481
1015.944481
1015.945077
1015.944481
449.228883
187.065005
55.492520
20.026565
8.692741
7.666945
7.256866
6.807446
6.756783
6.722808
6.671548
6.681681
7.577538
9.045601
12.436509
16.127825
##ZVALUE=375
0.284910
0.192523
0.237823
0.405908
0.222921
0.184774
0.266433
0.409484
0.242591
0.311732
0.218749
0.317693
0.257492
0.193715
0.366569
0.258684
0.327826
0.144839
0.373721
0.345707
0.382662
0.305772
0.353456
0.425577
0.190735
0.415444
0.204444
0.368953
0.362992
0.328422
0.434518
0.296831
0.175834
0.326633
0.393987
0.247955
0.324845
0.420809
0.493526
0.504851
0.436902
0.535846
0.594854
0.651479
0.641942
0.598431
0.519753
0.527501
0.505447
0.681877
0.574589
0.629425
0.629425
0.556707
0.774860
0.718832
0.693798
0.871420
0.924468
0.941753
0.896454
0.953674
1.185536
1.213551
1.302958
1.404881
1.535416
2.067685
2.624989
9.305477
36.675930
134.660602
287.473798
633.235574
964.408517
1015.944481
1015.944481
1015.944481
1015.944481
1015.944481
1015.944481
648.509860
388.512015
179.142952
84.496737
25.749803
10.752678
6.628633
6.354451
6.021857
5.983710
5.935431
5.784631
5.910993
6.254911
6.684661
##ZVALUE=380
0.154972
0.170469
0.230670
0.215769
0.384450
0.221729
0.165701
0.206828
0.222921
0.404716
0.182986
0.325441
0.241995
0.389814
0.079870
0.387430
0.268817
0.238419
0.248551
0.103712
0.203848
0.233650
0.229478
0.395775
0.338554
0.278950
0.376701
0.285506
0.355840
0.383854
0.259876
0.121593
0.425577
0.488758
0.237823
0.235438
0.296831
0.355840
0.250936
0.442863
0.295639
0.322461
0.333786
0.449419
0.464916
0.712872
0.546575
0.502467
0.571609
0.470877
0.574589
0.568628
0.711679
0.628829
0.729561
0.602603
0.608563
0.594854
0.776649
0.756979
0.793934
0.912547
0.917912
1.030564
1.199841
1.283884
1.391768
1.751781
1.890659
2.376437
2.564788
5.097985
21.964908
111.061931
252.746940
577.366948
905.430913
1015.941501
1015.941501
1015.941501
1015.941501
1015.941501
1015.942097
881.621838
567.950606
260.196924
122.626424
39.430857
15.241504
6.972551
6.184578
5.835891
5.742908
5.628467
6.136894
5.751848
##ZVALUE=385
0.273585
0.220537
0.216961
0.290871
0.175834
0.094771
0.139475
0.201464
0.209808
0.226498
0.303984
0.320673
0.069737
0.354648
0.271797
0.313520
0.164509
0.312924
0.230670
0.209808
0.224710
0.242591
0.271797
0.163913
0.307560
0.230670
0.459552
0.292659
0.333786
0.421405
0.455976
0.270605
0.422597
0.402927
0.447631
0.414848
0.400543
0.466704
0.367761
0.429749
0.496507
0.500679
0.377893
0.429749
0.436902
0.564456
0.455976
0.505447
0.496507
0.513792
0.534654
0.562668
0.457764
0.553727
0.603795
0.627637
0.768900
0.576973
0.698566
0.880957
0.722408
0.855923
0.894666
0.917912
0.978708
1.203418
1.154542
1.473427
1.667738
1.873970
2.219677
2.313852
2.471805
3.181696
9.141564
59.410930
158.922672
405.381918
712.755919
1015.949845
1015.949845
1015.949845
1015.949845
1015.949845
1015.949845
1015.949845
867.939591
455.303788
246.657729
92.979670
33.680797
8.932948
6.221533
5.857944
5.677938
5.802512
##ZVALUE=390
0.337958
0.345707
0.338554
0.286698
0.358820
0.145435
0.339746
0.301600
0.380874
0.370741
0.314713
0.418425
0.505447
0.422597
0.495911
0.327826
0.279546
0.414848
0.396967
0.475645
0.370741
0.330806
0.431538
0.384450
0.444651
0.368953
0.368953
0.397563
0.446439
0.437498
0.410676
0.570416
0.366569
0.517964
0.448823
0.474453
0.381470
0.501871
0.462532
0.609756
0.357628
0.528693
0.635982
0.615716
0.559688
0.578761
0.609756
0.557899
0.605583
0.736713
0.616908
0.867844
0.741482
0.900626
0.800490
0.824928
0.833869
0.764728
0.856519
0.933409
0.981688
0.978708
1.122952
1.183748
1.023412
1.304746
1.222491
1.628995
1.827478
1.881719
2.042651
2.098680
2.109408
2.320409
2.418756
2.643466
5.134940
30.768514
95.843673
301.673412
569.774508
1004.870534
1016.091704
1016.091704
1016.091704
1016.091704
1016.091704
1016.091704
1016.091704
668.542981
381.108522
144.179463
60.275793
14.607906
7.128716
5.957484
##ZVALUE=395
0.368953
0.525713
0.477433
0.608563
0.421405
0.392795
0.458956
0.495911
0.424981
0.361800
0.281930
0.216961
0.575781
0.501871
0.449419
0.481606
0.553727
0.530481
0.381470
0.379682
0.365973
0.440478
0.511408
0.417829
0.418425
0.493526
0.468493
0.355840
0.339746
0.509620
0.326633
0.535846
0.497699
0.509620
0.464916
0.530481
0.481606
0.637770
0.518560
0.477433
0.557899
0.620484
0.565648
0.615716
0.487566
0.655651
0.547767
0.665784
0.575781
0.662804
0.514984
0.634789
0.825524
0.864863
0.692606
0.731945
0.745654
0.729561
0.809431
0.744462
0.922680
0.965595
1.052618
1.079440
1.097918
1.000762
1.256466
1.473427
1.553893
1.625419
1.711845
1.793504
1.887679
2.038479
1.861453
2.108812
2.065897
2.621412
3.578663
22.706985
82.650781
262.993574
465.807915
842.670798
1016.181707
1016.181707
1016.181707
1016.181707
1016.181707
1016.181707
1016.181707
689.134598
408.159494
166.538954
73.790550
23.369789
##ZVALUE=400
0.155568
0.169873
0.335574
0.337958
0.256896
0.115633
0.182986
0.071526
0.267625
0.172853
0.102520
0.151992
0.152588
0.173450
0.265837
0.156760
0.039935
0.252724
0.209808
0.098944
0.153780
0.044703
0.405908
0.277758
0.191927
0.295639
0.131726
0.230670
0.279546
0.275970
0.283718
0.255704
0.311732
0.225902
0.278950
0.193715
0.311732
0.261664
0.341535
0.257492
0.356436
0.440478
0.397563
0.364780
0.340939
0.372529
0.514984
0.457764
0.423789
0.291467
0.353456
0.423789
0.424981
0.479817
0.361800
0.586510
0.592470
0.559688
0.704527
0.547767
0.578761
0.644922
0.753999
0.629425
0.744462
0.939965
0.898838
0.936985
1.059771
1.250505
1.299977
1.460910
1.431704
1.510978
1.447797
1.354814
1.530647
1.697540
1.948476
1.966953
2.464652
8.535981
34.732819
139.095783
301.621556
643.798709
966.754556
1015.944481
1015.944481
1015.944481
1015.944481
1015.944481
1015.944481
836.055875
538.025498
250.621438
##END
