##TITLE=QP00351
##FORMAT=SPECTACLE-ASCII V-1.2
##DATA TYPE=ULTRAVIOLET SPECTRUM
##SECOND TYPE=ULTRAVIOLET SPECTRUM
##DATE=01/21/18
##TIME=17:33:08
##SPECTROMETER/DATA SYSTEM=SPECTACLE
##XUNITS=NM EM
##YUNITS=ENERGY
##YFACTOR=1
##FIRSTX=220
##LASTX=410
##NPOINTS=96
##3DDATA=Equidistant
##ZUNITS=NM EX
##FIRSTZ=210
##LASTZ=400
##ZPOINTS=39
##XYDATA=(Y..Y)
##ZVALUE=210
1.613498
1.824498
1.302958
1.800656
1.598597
1.720786
1.765490
1.656413
2.007484
1.844764
1.531839
1.714826
1.800656
1.846552
2.044439
1.878738
2.333522
2.522469
2.676845
2.421737
2.918839
2.728701
2.365708
2.969503
2.167821
2.797842
2.878904
3.396869
3.150702
3.284812
3.799796
3.796816
3.656745
3.387928
3.625751
4.215837
3.850460
3.789663
3.721714
3.910661
3.534555
4.452467
3.671646
3.989935
4.473925
3.851652
4.045963
5.388856
5.102754
4.114509
4.231930
4.106760
5.152822
4.458427
5.014539
4.945993
4.429817
4.916787
4.559755
5.030632
4.451871
4.629493
4.704595
4.650950
4.330873
5.440712
5.641580
5.839467
6.218553
7.038713
8.401871
9.858608
11.175871
13.701916
12.638569
14.116764
15.191436
14.255643
12.326837
11.772513
10.236502
10.658503
8.157492
8.232594
6.776452
5.846620
5.180836
4.758835
4.895926
4.758835
4.851818
4.603863
5.463958
4.917979
5.555749
5.400777
##ZVALUE=215
4.115701
4.013777
3.038645
4.092455
3.009439
2.956986
2.812743
3.111959
3.739595
3.392696
3.515482
3.638864
3.348589
2.808571
2.408624
2.190471
2.192855
2.161860
2.368689
2.482533
1.997948
2.496839
3.003478
3.054738
2.978444
3.208518
3.461838
3.008842
3.628731
4.087687
3.678799
3.669858
4.170537
4.179478
4.408956
4.055500
3.648996
4.345775
4.708767
4.560947
4.150867
4.107952
4.253983
4.010797
5.005598
4.135966
4.307628
4.456639
5.177855
4.561543
4.685521
4.134774
4.604459
5.253553
4.733801
5.059838
5.390644
5.148649
4.638433
4.469752
4.413724
4.915595
4.532933
4.999638
5.145669
5.786419
4.683733
5.799532
6.011724
8.105636
7.021427
9.416938
10.568500
12.293458
12.319684
13.880730
14.077425
12.755990
12.279749
11.530519
11.335611
8.923411
8.119941
7.696748
7.616878
6.388426
5.990863
5.768538
5.491972
5.268455
4.862547
4.092455
4.450679
5.010962
4.935861
4.783869
##ZVALUE=220
12.098551
13.023615
15.024543
16.060472
13.239980
11.153817
10.503531
9.630919
9.282827
8.389950
8.998513
9.182692
9.740591
8.776784
7.814765
6.391406
4.829764
3.348589
3.417730
2.413988
2.849698
3.368855
2.701879
3.035665
3.141761
3.320575
3.015995
4.303455
4.301667
5.106926
4.851818
4.455447
4.738569
4.996657
5.249977
4.873872
4.997849
5.682707
5.271435
4.652739
4.759431
4.511476
4.774928
4.837513
5.155802
4.681945
5.232692
5.558729
4.666448
5.749464
5.186796
5.246997
5.068779
6.014705
4.586577
5.245805
5.590916
4.723668
5.606413
5.393624
5.568862
4.913807
6.286502
5.143881
5.952716
5.777478
6.256700
6.389618
6.763935
8.574724
8.213520
10.486841
12.054443
12.706518
14.077425
14.942884
14.014840
13.025999
12.476444
13.053417
10.421872
9.819865
10.484457
8.210540
7.587671
7.546544
6.046891
6.213784
5.481839
6.199479
5.855560
5.116463
5.525947
5.820990
5.328655
5.705953
##ZVALUE=225
23.129582
24.599433
34.545660
45.021772
51.089525
53.549409
52.062869
43.560863
35.770535
26.211739
22.551417
19.239783
21.939874
24.323463
23.507476
21.482706
18.805861
16.895533
12.513995
8.177757
6.085634
4.036427
4.237890
3.306866
3.715754
3.141761
4.442930
3.908873
4.537702
4.962683
5.416870
5.476475
5.357862
6.053448
6.262660
6.115437
7.220507
6.065965
5.566478
6.668568
7.340908
6.600618
5.865693
6.040931
5.733967
6.497502
6.200671
5.775690
5.482435
6.825924
6.644726
5.260706
6.737709
6.565452
6.027818
7.280707
6.355643
5.847812
6.926656
7.091761
6.053448
7.050633
5.681515
7.086992
6.957650
6.853938
6.983876
7.609725
7.924438
9.021759
9.588599
11.678934
12.712479
14.885664
15.257597
14.744997
14.566779
12.268424
13.536811
12.218952
12.086630
11.964440
9.711981
10.123849
8.166432
8.727908
8.417964
7.362962
8.155704
6.651878
8.129478
6.673932
6.283522
8.714795
7.077456
7.259846
##ZVALUE=230
19.715428
22.606850
43.576956
64.034462
99.473596
116.614699
139.774680
144.649744
131.185651
111.690760
80.423951
61.128736
47.140718
43.504834
42.084455
46.095848
50.236583
49.054623
42.953491
34.348965
25.940537
18.940568
12.252927
8.414984
4.976988
4.556775
5.101562
4.362464
5.379915
5.550981
5.087852
5.326867
6.418824
6.147623
6.536841
5.950928
6.256700
6.492734
7.268786
6.923676
6.581545
5.839467
6.702542
6.224513
5.934834
6.888509
6.252527
5.915761
6.214976
6.944537
6.488562
6.850958
6.641746
7.651448
6.834865
6.014705
7.643700
6.813407
8.250475
7.406473
7.821918
8.117557
8.454919
8.429885
7.029772
8.913875
8.317828
9.270906
10.387897
11.203885
12.465715
12.858510
16.525984
16.263723
17.321706
18.765926
17.872453
15.389919
16.220808
14.484525
14.438629
14.712811
13.527870
13.530850
11.563897
12.228489
10.017753
10.795593
11.430979
10.960698
10.342598
10.607839
11.413693
10.348558
11.072755
9.407997
##ZVALUE=235
7.438660
9.024739
18.147826
49.985647
85.812807
141.481757
192.084908
254.026651
289.961696
297.762752
274.384618
234.235525
166.669488
123.687983
89.748502
75.508952
71.780682
77.687502
81.235766
84.602833
78.326464
64.404607
51.105618
32.950640
23.403764
14.704466
9.469986
6.994605
5.464554
5.629659
6.656647
6.165504
5.843639
6.100535
6.544590
6.720424
6.658435
6.522536
7.278919
7.559657
6.189942
6.196499
7.024407
6.361604
6.481409
6.388426
7.411838
6.933808
7.023811
6.987453
8.005500
7.410645
7.290840
7.975698
7.084608
8.569956
8.578897
9.098649
8.209944
8.361936
9.740591
9.324551
10.522604
9.811521
10.253787
11.651516
11.100769
12.870431
13.004541
13.842583
14.901757
15.921593
17.721653
19.912720
21.543503
19.765496
21.143556
20.905733
18.847585
18.597841
19.038916
17.773509
16.374588
16.479492
15.700459
17.394423
15.213490
16.189814
14.962554
14.768839
14.881492
15.984774
14.960766
15.202761
14.713407
15.199780
##ZVALUE=240
1.657605
1.509786
4.262924
10.503531
32.190681
65.483451
138.103962
210.695863
329.659581
401.910543
476.332903
485.307574
460.357666
374.231935
297.854543
200.727582
145.086646
105.898976
94.700456
103.304982
113.716722
118.680596
118.220448
105.044842
82.131624
64.848661
44.523478
31.409860
19.091964
12.529492
8.455515
7.421970
6.419420
6.230474
6.703734
6.995797
7.662773
7.265806
6.866455
6.865859
7.317662
6.837845
6.658435
7.252693
6.765723
6.786585
7.238984
6.853938
7.304549
8.288622
7.951856
8.335710
8.398890
8.356571
8.491874
9.332895
8.643866
8.809566
8.140802
10.771751
9.997487
10.490417
10.215640
11.507869
11.459589
14.183521
13.549924
14.551878
14.872551
17.349720
17.019510
18.964410
19.556880
20.952821
23.137927
21.434426
24.021864
22.989511
22.586584
21.735430
22.585988
21.205544
20.806789
20.016432
20.562410
19.671917
18.856525
19.811988
19.005537
18.872619
18.539429
18.980503
19.280910
18.961430
19.904971
17.288923
##ZVALUE=245
1.220703
1.381636
1.470447
1.265407
3.336668
9.315610
28.981566
63.636899
147.257447
235.277414
372.681618
472.090840
555.555820
600.530505
590.443611
510.407686
423.069000
292.531848
207.844973
129.358768
103.230476
100.164413
118.235946
128.851533
133.328438
126.494765
112.748742
95.216632
73.056817
55.335760
34.888983
24.863482
14.076829
9.853840
7.924438
7.842779
7.291436
7.297993
7.560849
7.778406
7.043481
7.282495
6.906986
7.436872
7.749796
7.561445
7.749796
7.163882
7.369518
6.880760
7.979870
7.303953
6.694794
6.992817
8.215904
7.644892
9.068847
9.080768
8.272529
9.948611
9.154677
8.627772
9.951591
10.733604
10.657907
11.656880
11.871457
13.646483
14.612675
15.331507
16.522408
18.192530
18.664598
20.423532
21.053553
21.486878
21.059513
20.489693
21.219850
22.699833
20.921826
20.757914
19.697547
20.591617
19.621849
19.794703
19.378662
19.098520
21.291971
20.060539
20.634532
19.587874
19.434690
20.062923
19.736886
19.413829
##ZVALUE=250
1.177788
1.237988
0.879765
1.255870
1.098514
1.059771
1.626611
6.537437
20.071864
56.171417
111.396909
232.312679
341.303945
502.688885
601.671934
693.663955
697.214603
641.878843
559.072495
386.963487
273.541808
188.104510
114.855766
95.310807
108.104944
121.901631
138.015747
141.175985
138.845444
125.353932
101.416707
81.100464
54.145455
38.410425
22.941828
13.948679
9.987950
7.998943
7.045865
7.392764
7.745624
7.365942
7.500648
7.364750
7.072687
7.457733
7.287860
7.291436
7.616878
7.128716
7.581711
6.464720
7.108450
7.202625
7.071495
7.568598
8.137822
7.093549
7.563829
8.406639
7.664561
8.253455
9.039640
8.930564
9.023547
10.686517
11.271834
11.120439
12.336969
15.010834
15.711784
15.720725
17.664433
17.900467
19.355416
20.127892
19.290447
20.137429
20.588636
19.846559
18.007755
19.008517
19.069910
20.805597
19.471645
17.943978
17.951727
19.172430
18.456578
19.005537
18.645525
18.864870
18.293858
18.801689
18.601418
18.988848
##ZVALUE=255
0.848770
0.792742
0.793934
0.907779
1.148582
1.106858
1.023412
1.277924
1.264811
3.779531
12.061596
42.755604
92.556477
203.491449
305.511951
486.788750
609.394908
749.115944
787.472725
752.576590
664.816499
560.121536
348.387957
231.204629
125.445724
93.512535
92.251897
105.200410
129.553676
144.563913
149.278641
146.420598
130.366683
107.426643
80.249906
60.421824
37.427545
24.424791
13.712645
10.607839
8.100867
7.908940
7.668734
6.387830
7.764697
7.116795
6.462932
6.570816
7.124543
6.429553
7.127523
6.163716
6.856918
6.683469
5.983710
6.913543
6.335974
7.418990
6.917715
7.187724
6.858706
7.635951
7.611513
7.545948
7.595420
9.028912
8.890629
9.206533
10.435581
11.536479
12.410879
13.763905
13.365746
14.610887
15.971661
16.457438
15.617609
16.618967
16.407967
16.070604
16.360879
16.526580
16.511679
16.600490
17.505884
17.553568
16.172528
17.728806
16.620755
17.278790
16.222596
17.101765
17.263889
17.546415
17.744899
17.860532
##ZVALUE=260
0.917912
0.842810
0.654459
0.954866
0.837445
1.014471
0.983477
1.030564
1.412630
1.233816
1.681447
1.882911
8.192658
22.793412
64.161420
130.379796
278.939009
409.210920
554.123521
741.328597
840.112567
846.620798
778.985620
605.685711
452.049971
268.809795
175.057650
102.259517
80.585480
88.056922
108.015537
132.479668
150.160789
157.012939
151.219964
135.206580
115.685463
84.281564
60.550570
39.690733
24.874806
14.818907
10.402799
7.699728
7.111430
6.901622
6.898642
6.590486
7.218719
6.514788
6.638765
6.749630
6.340742
6.550550
6.466508
6.306767
6.188750
6.412864
6.567836
6.958842
6.597638
6.703734
7.259846
7.216930
7.359982
7.864833
8.201599
8.435845
9.108782
10.586977
10.298491
11.361837
12.458563
13.695955
13.862848
13.685822
14.152527
14.486909
14.392734
14.389753
14.518499
15.783906
14.182925
15.724897
15.042424
14.934540
14.809966
15.541911
15.255809
16.018748
15.352964
15.119910
15.649796
15.787482
16.392469
15.893579
##ZVALUE=265
0.658631
0.800490
0.832677
0.880957
0.957847
0.790954
0.604987
0.904799
0.832677
0.949502
0.964999
1.183748
1.382828
1.659989
3.528595
16.809702
43.574572
113.394856
204.164982
390.026569
549.483895
695.530772
876.730680
919.400454
851.841569
745.734572
552.464724
397.891998
221.397877
140.753984
82.687736
72.943568
84.049702
113.252997
137.117505
156.605840
159.163475
152.433515
137.801766
108.443499
84.345937
57.175756
38.961768
22.693872
14.653802
10.135770
7.903576
6.752610
7.063746
6.848574
7.072687
6.931424
6.403923
6.463528
7.186532
6.240606
6.745458
6.404519
6.454587
6.704926
6.325841
6.668568
6.711483
7.221699
7.257462
7.415414
8.058548
8.416772
8.279681
9.199977
9.206533
11.003613
10.866523
11.905432
12.534857
12.914538
12.632608
13.504624
13.459921
13.624430
13.289452
13.098717
13.066530
14.155507
13.577938
13.777614
13.908744
14.346838
15.057921
14.381409
14.400482
14.564991
14.507771
15.035868
15.214682
15.664697
##ZVALUE=270
0.636578
0.711679
0.877976
0.690818
0.844598
0.804663
0.761747
0.659823
0.846982
0.760555
0.796914
0.968575
1.032948
1.030564
1.111627
1.238585
1.921654
7.600784
22.852421
77.396631
157.998800
280.456543
505.524874
694.831610
895.276666
984.035730
978.818536
903.638601
724.836588
545.801520
378.414392
204.371810
120.497942
67.993999
64.782500
90.856552
110.629797
139.295459
154.087543
160.221457
157.622695
136.537552
116.291642
85.735917
62.397718
35.837889
24.486780
15.209913
10.023713
7.774830
6.940961
6.665587
6.408691
6.398559
6.977916
6.639957
6.337762
6.116629
6.415844
6.919503
6.872416
7.068515
6.870627
6.914735
7.657409
7.459521
7.533431
7.533431
8.382797
9.395480
9.143949
10.184646
11.252761
12.227893
11.296868
12.519956
12.189746
12.671947
12.494922
12.614727
12.848973
12.443662
12.582541
12.389421
12.501478
12.273788
13.204813
13.400912
13.336539
13.024807
13.170838
13.093948
13.951659
14.330745
13.543963
13.458729
##ZVALUE=275
0.697970
0.584722
0.454783
0.710487
0.573993
0.658631
0.725985
0.572801
0.647902
0.835657
0.600815
0.908971
0.827909
1.023412
0.995994
0.951886
1.298785
1.416802
1.513958
3.959537
13.694763
51.648617
120.175481
233.212709
450.891852
621.316433
835.715532
975.071788
1015.943885
1002.072692
852.089524
692.654848
444.645882
283.637643
136.824846
79.610944
51.078796
59.946775
86.159706
107.650757
136.132836
148.999691
158.573985
153.817534
134.735703
110.720992
83.980560
62.350631
38.762689
25.818944
14.384985
10.328889
7.358789
6.480813
6.335974
6.363988
6.768703
6.412864
7.235408
7.082820
7.233620
7.298589
7.863641
7.414818
7.880926
7.853508
7.900596
8.587837
8.810759
9.328723
10.125637
10.388494
11.066794
11.428595
11.656880
12.225509
12.437701
12.100935
11.629462
12.389421
12.386441
12.717843
12.295842
11.827946
11.892915
12.176633
12.887716
12.493730
12.536645
12.587905
12.511611
12.641549
12.929440
12.531877
12.794733
13.009906
##ZVALUE=280
0.417829
0.580549
0.505447
0.514984
0.692606
0.507832
0.538826
0.583529
0.684857
0.798702
0.668764
0.620484
0.659823
0.816584
0.809431
0.728965
0.675917
0.816584
1.120567
1.196861
1.318455
1.840591
9.094477
30.161738
97.147822
180.487633
352.374911
529.880524
780.010819
937.125683
1015.926600
1015.926600
972.251892
769.529939
576.639771
332.891941
201.271772
92.446804
51.598549
42.936802
55.656433
83.509684
105.603933
133.141875
146.700740
152.931809
146.592855
129.396915
110.691786
81.337690
60.551763
37.466884
25.863647
14.848709
10.085702
7.341504
6.888509
6.642938
7.120967
6.985664
7.155538
7.199645
7.573962
7.973909
8.141994
7.870793
7.987618
8.783937
9.002686
9.619594
10.161996
10.137558
10.894537
11.467934
11.279583
11.730790
12.145638
11.371970
11.878610
12.115836
11.919737
12.316704
11.901855
12.158751
11.428595
12.594461
12.062788
12.063980
12.156963
11.987686
11.962652
12.117624
12.485981
12.137890
11.628866
12.424588
##ZVALUE=285
0.606775
0.302792
0.574589
0.387430
0.458956
0.458956
0.503659
0.491738
0.608563
0.637770
0.568628
0.542998
0.555515
0.789762
0.787973
0.750422
0.744462
0.811815
0.800490
0.935793
0.976920
0.959635
1.291633
1.418591
3.906488
19.883513
49.904585
132.746696
233.421922
438.172817
615.005493
850.423574
995.422006
1015.943885
1009.390950
855.512619
689.253807
429.413915
273.491740
130.097866
67.694783
34.521818
34.864545
54.015517
73.230863
103.553534
122.850537
142.553449
147.925615
144.071579
131.939650
108.726621
85.944533
59.876442
41.960478
24.794936
16.115904
11.142492
8.469820
8.115768
7.548928
7.996559
8.053780
8.156896
8.118749
9.052753
8.573532
9.777546
9.684563
10.670424
10.936856
10.932684
11.384487
11.620522
12.183785
11.984706
11.905432
12.280941
12.447834
12.406707
11.881590
12.034774
12.010932
12.042522
12.281537
12.272000
12.365580
12.175441
11.944771
12.205839
12.228489
11.853576
11.577606
12.396574
11.974573
11.818409
##ZVALUE=290
0.523925
0.360608
0.521541
0.477433
0.514984
0.406504
0.599623
0.564456
0.567436
0.491738
0.574589
0.570416
0.740886
0.716448
0.544786
0.715852
0.701547
0.723600
0.755787
0.795722
0.863671
0.811815
1.029968
1.036525
1.080632
1.407862
1.892447
6.364584
31.598806
72.765946
178.970695
314.328671
492.104888
767.893791
933.027864
1015.943885
1015.943885
970.830917
810.357928
555.369854
369.872451
187.737942
95.593929
37.195683
25.606751
33.294559
47.901869
73.297620
93.111992
118.523836
135.707855
145.230889
142.545700
126.830935
107.747912
81.608891
60.728788
38.911700
26.689768
16.822815
11.935830
9.578466
8.582473
8.510947
9.071827
8.793473
8.764863
9.695888
9.764433
10.243654
11.039972
11.659861
11.517406
12.304783
11.890531
11.813641
11.887550
11.863708
11.798739
11.682510
11.774898
12.252927
12.289882
12.102723
11.914968
12.009740
12.149811
12.383461
11.748672
12.075901
11.833906
11.600852
11.621714
11.608601
11.333823
11.640787
##ZVALUE=295
0.426769
0.311732
0.330806
0.492930
0.284910
0.361800
0.472665
0.482798
0.529885
0.422597
0.332594
0.513792
0.549555
0.509620
0.425577
0.542998
0.594854
0.750422
0.687838
0.810623
0.684857
0.761747
0.858903
0.820756
1.007915
1.109838
1.048446
1.261830
1.498461
2.738833
9.506941
44.966936
107.140541
258.460641
419.789553
678.829551
859.348774
1015.943885
1015.943885
1004.606485
873.925686
626.458526
440.083742
236.345530
131.552815
50.999522
26.616454
21.376610
28.899908
47.622919
65.016747
91.945529
110.221505
131.071806
138.150454
135.524869
124.642849
101.824999
83.593726
58.151484
42.329431
26.893616
18.734932
13.436675
11.360645
9.822845
9.390712
10.030866
10.278821
10.902882
10.888577
11.556745
11.621714
11.840463
11.959672
12.457967
12.145638
11.807680
12.484789
12.023449
12.232661
12.115836
12.082458
12.151599
11.932850
11.935830
12.080669
12.113452
12.098551
11.766553
11.778474
12.049675
11.334419
12.023449
11.707544
11.370778
##ZVALUE=300
0.396967
0.370741
0.329614
0.520945
0.298619
0.568628
0.391603
0.303984
0.497699
0.469685
0.395775
0.377893
0.459552
0.530481
0.424981
0.745654
0.465512
0.502467
0.653863
0.578761
0.744462
0.681877
0.847578
0.868440
0.907779
0.870824
1.086593
1.059771
1.228452
1.443624
1.375675
1.971722
6.435513
23.603439
81.846714
163.660645
348.998904
540.841818
818.521976
989.701748
1015.944481
1015.944481
974.767804
805.488825
534.141660
350.070596
178.768635
96.775889
35.925508
19.040704
18.475652
26.790500
42.761564
59.561729
83.719492
102.797747
123.427510
131.037831
129.873753
121.947527
101.936460
82.697868
59.126616
43.898821
28.200746
19.608736
14.119744
11.451840
10.503531
10.722876
11.470914
11.390448
11.418462
12.045503
11.752844
12.032986
11.995435
12.352467
11.727810
12.072921
11.995435
12.376904
11.962652
12.145638
12.495518
12.055635
12.059808
12.376904
11.916757
11.706948
11.781454
12.081861
11.441708
11.522770
11.360645
11.396408
##ZVALUE=305
0.405908
0.499487
0.395775
0.305772
0.435710
0.370741
0.297427
0.387430
0.457764
0.410676
0.364780
0.423789
0.438690
0.388622
0.591874
0.538826
0.639558
0.443459
0.494719
0.555515
0.536442
0.517964
0.709891
0.637770
0.739694
0.621676
0.952482
0.783801
0.863671
0.939965
1.073480
1.107454
1.503825
1.551509
2.623796
15.762448
46.049953
135.496855
247.246027
469.926596
669.860840
925.154686
1015.935540
1015.935540
1015.935540
841.980577
659.537911
424.165726
275.763869
129.783750
66.528916
24.490952
14.729500
17.846823
25.887489
41.030645
58.976412
81.686974
99.126697
118.088722
125.850439
123.866796
114.704967
96.680522
78.538656
55.500865
41.309595
26.750565
19.339919
13.853908
12.635589
11.563897
11.292696
11.575818
11.771917
11.762977
11.556745
11.698604
11.733770
12.126565
12.189746
12.283921
12.513995
12.057424
12.393594
12.419820
11.937618
12.446642
11.813641
11.727810
11.531711
11.479855
11.467934
11.085868
11.093616
11.089444
##ZVALUE=310
0.303984
0.483990
0.433922
0.392795
0.367761
0.402927
0.217557
0.224710
0.454783
0.312924
0.280738
0.368953
0.554919
0.395775
0.457764
0.413656
0.335574
0.335574
0.328422
0.444651
0.532866
0.629425
0.558496
0.564456
0.614524
0.704527
0.747442
0.716448
0.643730
0.863671
0.973940
0.838637
1.051426
1.246929
1.199841
1.282692
1.697540
5.178452
28.736591
68.804622
179.821849
318.039656
569.836497
780.252814
1005.966663
1015.943885
1015.943885
1007.824540
792.906880
588.314533
339.823961
206.853747
92.399716
44.336915
16.302466
12.057424
16.036630
22.687912
35.757422
50.218701
72.097778
90.121627
108.926892
116.983652
118.488669
110.955834
95.076561
80.230832
55.624843
41.818619
27.050972
20.255446
15.612841
12.900829
11.895895
11.376739
11.153817
11.525750
11.311769
11.728406
11.683702
11.713505
11.897683
12.183785
11.971593
11.557937
12.365580
12.195706
12.386441
11.918545
11.395812
11.817813
11.528730
11.471510
10.979772
10.839701
##ZVALUE=315
0.033975
0.153780
0.135899
0.227690
0.293851
0.042915
0.212789
0.237823
0.254512
0.286698
0.233650
0.111461
0.298619
0.293851
0.341535
0.147820
0.279546
0.156760
0.270605
0.280738
0.352859
0.364780
0.396967
0.499487
0.402927
0.314713
0.355840
0.414848
0.556707
0.593662
0.540614
0.527501
0.558496
0.896454
0.769496
0.908971
0.753999
1.101494
1.385808
3.223419
12.425780
54.032803
121.795535
280.123949
463.496447
749.140978
930.919647
1015.772820
1015.772820
1015.772820
922.185779
674.570799
481.635928
261.973739
146.679878
58.516860
26.155710
11.136532
11.057854
15.207529
20.306706
33.955574
47.056675
67.410469
83.225965
101.955533
110.040903
111.480951
104.805827
89.365840
74.573755
55.419803
42.297840
27.136803
20.140409
14.767647
12.743473
11.440516
11.523962
11.373758
10.972619
11.139512
11.264682
11.794567
11.295676
11.189580
11.467934
11.703968
11.305809
11.632442
11.652708
11.146665
10.888577
11.081696
10.986924
10.878444
##ZVALUE=320
0.098944
0.220537
0.277758
0.115633
0.308752
0.172853
0.031590
0.299811
0.161529
0.146627
0.299811
0.080466
0.331998
0.239611
0.173450
0.183582
0.280738
0.342727
0.420809
0.396967
0.302792
0.315905
0.146627
0.300407
0.281930
0.407696
0.650883
0.489950
0.417829
0.576973
0.576973
0.595450
0.455976
0.597835
0.741482
0.651479
0.737906
0.991821
0.927448
1.086593
1.421571
1.725554
5.944967
31.980872
79.621673
206.700563
349.453688
595.833659
798.862576
1015.842557
1015.842557
1015.842557
1015.842557
821.980834
603.782535
342.152715
197.332501
82.259774
38.967729
14.066696
9.351969
10.647774
12.915730
19.263625
27.953982
45.578480
59.810877
79.455972
93.511939
103.694797
106.229782
99.643469
88.149905
69.090724
54.696798
37.484765
27.718544
19.693971
15.232563
12.443662
11.896491
11.115670
11.245608
10.966659
11.184812
10.944605
11.289716
11.068583
11.589527
10.813475
10.904670
11.143684
10.719895
10.781884
10.734797
11.009574
##ZVALUE=325
0.196695
0.189543
0.156760
0.188947
0.295639
0.365973
0.382662
0.316501
0.387430
0.337958
0.268817
0.245571
0.232458
0.225902
0.269413
0.313520
0.367761
0.364780
0.485778
0.347495
0.465512
0.457764
0.410676
0.473857
0.504851
0.424981
0.423789
0.514984
0.420809
0.422597
0.525713
0.459552
0.705719
0.575781
0.716448
0.764728
0.856519
0.754595
0.998974
1.126528
1.007915
1.317859
1.286864
1.427531
3.131628
20.303726
54.807663
143.142939
260.760784
504.300594
718.706846
983.532667
1015.943885
1015.943885
1015.943885
882.458687
666.308999
408.864617
247.038007
107.588768
51.528811
16.842484
9.952784
8.856654
9.843707
13.049841
18.306971
28.902888
41.487813
59.973001
74.622631
90.811849
97.533464
99.073648
94.433427
79.514980
65.718889
49.899817
37.451982
24.584532
19.042492
14.054775
12.641549
11.664629
11.185408
11.101961
11.080503
11.275411
11.093616
11.255741
10.767579
10.796785
11.061430
10.533929
10.841489
10.491610
##ZVALUE=330
0.237823
0.373721
0.290871
0.313520
0.306964
0.439882
0.299811
0.249743
0.260472
0.211596
0.377893
0.206828
0.177622
0.359416
0.254512
0.351667
0.153780
0.219941
0.487566
0.391603
0.444651
0.509620
0.405908
0.397563
0.336766
0.453591
0.560880
0.513792
0.606775
0.582933
0.454783
0.414848
0.530481
0.675917
0.653863
0.569820
0.679493
0.771880
0.795722
0.780821
0.786781
1.088977
1.085997
1.226664
1.260638
1.557469
1.688600
8.424520
28.430820
97.638965
193.318725
413.431525
639.358759
973.752737
1015.943885
1015.943885
1015.943885
1015.943885
848.084688
530.791879
337.449908
154.782534
77.524781
26.910901
12.538433
8.198619
8.184910
9.976625
12.142658
18.675923
27.256608
41.215420
55.334568
73.404908
84.853768
93.039870
93.691945
87.103844
78.270435
61.694980
48.279762
33.741593
25.172830
18.543601
14.627576
12.893677
11.571646
10.864735
10.635853
10.671616
10.584593
10.553598
10.587573
10.367632
10.249615
10.309815
##ZVALUE=335
0.294447
0.341535
0.303984
0.244975
0.279546
0.379682
0.245571
0.077486
0.263453
0.307560
0.467896
0.358820
0.277758
0.313520
0.176430
0.302792
0.209808
0.237823
0.541806
0.442863
0.306964
0.422597
0.608563
0.483990
0.452995
0.422597
0.377893
0.406504
0.433922
0.372529
0.479817
0.563860
0.420809
0.493526
0.477433
0.505447
0.663996
0.619888
0.681877
0.762939
0.786781
0.787973
0.831485
0.854731
0.880957
0.957847
1.091957
1.227856
1.333952
3.771782
13.835430
57.110786
125.014782
284.457803
475.729704
776.224732
986.632705
1015.944481
1015.944481
1015.944481
894.782543
606.320500
406.960845
212.856531
109.717846
37.598610
15.860796
8.944869
8.543730
8.615851
9.533763
12.643933
17.132759
27.219653
38.116574
55.194497
66.854954
79.873800
87.340474
87.537766
82.487464
70.809722
60.431957
46.714544
36.427975
25.428534
19.484758
14.940500
12.241602
11.072755
10.496974
10.189414
9.939671
10.470748
10.025501
10.141730
##ZVALUE=340
0.297427
0.306964
0.278950
0.031590
0.129938
0.197887
0.154972
0.168681
0.358820
0.195503
0.240803
0.127554
0.218749
0.235438
0.274777
0.341535
0.298619
0.267625
0.437498
0.373721
0.370741
0.276566
0.372529
0.320673
0.215769
0.288486
0.295639
0.314713
0.456572
0.359416
0.516772
0.493526
0.464916
0.306964
0.613928
0.543594
0.525713
0.479817
0.467896
0.660419
0.495911
0.678897
0.681877
0.624657
0.719428
0.821948
0.896454
0.987649
0.960827
1.283884
1.262426
1.909733
6.547570
34.421682
88.580847
226.445794
397.816896
684.747696
906.325579
1015.943885
1015.943885
1015.943885
989.807844
730.075836
510.695577
264.890790
148.743987
59.235692
24.254918
9.846687
8.448958
8.657575
8.832812
10.128617
12.179613
18.135905
25.449991
37.514567
49.297810
65.302849
75.134635
82.550645
82.995892
77.749491
69.511533
56.040883
46.084523
33.811927
25.683641
18.286705
14.578700
11.566877
10.476708
10.027885
9.524822
9.810925
##ZVALUE=345
0.159740
0.241995
0.232458
0.237823
0.342727
0.301600
0.207424
0.306964
0.349879
0.220537
0.373721
0.224710
0.183582
0.367761
0.272989
0.197887
0.344515
0.432730
0.248551
0.347495
0.354648
0.231862
0.253916
0.240803
0.196695
0.430942
0.396967
0.400543
0.426769
0.392795
0.423789
0.351667
0.384450
0.423789
0.439882
0.534654
0.468493
0.508428
0.523925
0.526905
0.487566
0.462532
0.521541
0.529885
0.566840
0.816584
0.749826
0.768900
0.845790
0.885725
1.089573
1.239777
1.380444
1.604557
3.660917
15.097857
66.519976
142.304897
316.715837
511.034727
825.705528
1015.069485
1015.944481
1015.944481
1015.944481
907.802582
609.001517
395.449996
182.534456
89.134574
29.445887
13.628602
9.069443
8.261800
8.174777
8.169413
9.408593
11.327863
16.081929
23.015738
34.529567
45.342445
57.776570
66.920519
74.751973
76.581836
73.489547
67.086816
54.430962
45.413971
33.209920
25.160909
17.906427
14.374852
11.168718
10.153651
##ZVALUE=350
0.186563
0.240803
0.245571
0.344515
0.177622
0.313520
0.208616
0.235438
0.125766
0.049472
0.167489
0.310540
0.310540
0.214577
0.319481
0.353456
0.257492
0.299811
0.249743
0.402927
0.294447
0.348687
0.389814
0.355840
0.409484
0.481606
0.482798
0.418425
0.366569
0.440478
0.539422
0.559688
0.431538
0.373721
0.567436
0.408888
0.396967
0.503659
0.379682
0.367761
0.523925
0.480413
0.528693
0.599623
0.648499
0.625849
0.433922
0.710487
0.826716
0.813603
0.844598
0.952482
0.919700
1.094937
1.100898
1.407862
2.140403
9.835958
33.077598
110.658407
216.506720
451.475978
675.485730
978.887677
1015.949845
1015.949845
1015.949845
970.264673
727.481842
420.943499
250.647664
113.477707
51.576495
16.074777
9.117723
7.950664
7.734895
7.496476
7.825494
8.927584
11.011958
15.997887
21.058917
30.469894
38.917661
51.651597
59.546828
67.479610
70.124865
67.553520
61.976910
51.145554
42.298436
30.555725
23.719668
17.436743
##ZVALUE=355
0.212789
0.240803
0.192523
0.366569
0.325441
0.152588
0.161529
0.398755
0.478625
0.173450
0.125766
0.276566
0.245571
0.323653
0.182986
0.342727
0.240803
0.391603
0.376701
0.195503
0.229478
0.340939
0.379682
0.267625
0.318885
0.330806
0.321865
0.342727
0.237823
0.409484
0.442863
0.250936
0.401735
0.440478
0.464916
0.395775
0.467896
0.441670
0.349879
0.460744
0.413656
0.437498
0.294447
0.491738
0.482798
0.514984
0.590682
0.700951
0.612736
0.773668
0.663996
0.887513
0.923872
0.911951
0.982881
0.983477
1.266599
1.328588
1.509786
4.772544
17.342567
70.817471
147.356391
323.736668
532.998443
857.304931
1015.943885
1015.943885
1015.943885
987.774730
783.982873
493.305922
300.158858
131.359696
64.489841
22.316575
10.389686
7.636547
7.185936
7.380843
7.124543
7.526875
8.087754
9.879470
12.545586
18.756986
25.155544
34.764409
44.341683
53.688884
59.942603
63.060522
62.194467
56.004524
48.730969
39.513707
##ZVALUE=360
0.331998
0.097752
0.199676
0.218749
0.179410
0.282526
0.257492
0.174642
0.155568
0.315905
0.392795
0.282526
0.204444
0.298619
0.255704
0.349879
0.376701
0.212789
0.177622
0.321865
0.420809
0.534654
0.382662
0.333786
0.393987
0.443459
0.344515
0.320673
0.523925
0.310540
0.301600
0.324845
0.370741
0.512600
0.451803
0.280738
0.434518
0.461936
0.440478
0.658631
0.604987
0.385642
0.462532
0.496507
0.500679
0.583529
0.460744
0.634789
0.568628
0.668764
0.785589
0.870824
0.880957
0.937581
0.883937
0.884533
0.925660
1.005530
1.196861
1.525879
1.600981
2.397895
7.949471
38.966537
102.217793
276.910663
476.784706
808.268785
1015.944481
1015.944481
1015.944481
1015.944481
978.817940
645.977855
416.666865
192.932487
99.021792
36.529899
14.966726
7.932782
7.100701
7.019639
6.824732
7.127523
6.888509
7.213950
8.652806
11.312962
14.796853
21.023750
28.649569
38.938522
47.064424
53.843856
57.500601
57.593584
##ZVALUE=365
0.195503
0.226498
0.207424
0.127554
0.270605
0.356436
0.182986
0.263453
0.356436
0.220537
0.188947
0.313520
0.303984
0.118613
0.224710
0.451803
0.419617
0.374913
0.295639
0.272989
0.431538
0.311732
0.358820
0.239611
0.418425
0.470877
0.375509
0.313520
0.331998
0.420809
0.454783
0.490546
0.355840
0.471473
0.445843
0.397563
0.434518
0.301600
0.488758
0.396967
0.687838
0.514984
0.380874
0.483990
0.464916
0.606775
0.679493
0.472665
0.453591
0.605583
0.611544
0.566840
0.701547
0.810623
0.763535
0.769496
0.752807
0.870824
1.030564
1.053810
1.129508
1.388788
1.554489
1.881719
3.644824
19.955635
58.566928
175.459981
321.926475
595.867634
828.412771
1015.943885
1015.943885
1015.943885
990.170836
711.757541
495.140553
269.382000
145.877600
54.663420
22.909641
8.663535
6.734729
6.498694
6.300807
5.999804
5.921721
6.214976
6.258488
7.214546
8.861423
13.326406
17.364621
24.637580
31.593442
40.842891
##ZVALUE=370
0.271797
0.225902
0.325441
0.211596
0.269413
0.200868
0.242591
0.236630
0.296831
0.184774
0.128746
0.170469
0.344515
0.396967
0.441670
0.141859
0.213981
0.525713
0.145435
0.319481
0.206828
0.325441
0.414848
0.212789
0.373721
0.295639
0.280738
0.438690
0.276566
0.431538
0.305772
0.346899
0.264645
0.351667
0.284910
0.475645
0.350475
0.557899
0.323653
0.398755
0.406504
0.494719
0.420809
0.449419
0.455976
0.420809
0.376701
0.309944
0.501871
0.585914
0.562668
0.650883
0.632405
0.577569
0.574589
0.804663
0.665784
0.829697
0.729561
0.823736
0.927448
1.007915
1.171827
1.215935
1.396537
1.670718
2.604723
9.120703
49.847960
123.108625
300.794840
487.922430
789.325833
992.930532
1015.943885
1015.943885
1015.943885
868.735909
569.833517
368.446708
174.351931
90.421438
34.367442
14.696717
6.851554
6.269813
5.945563
5.482435
5.469918
5.618930
5.522966
5.678535
6.377697
7.869601
11.544824
15.068650
##ZVALUE=375
0.176430
0.207424
0.136495
0.196695
0.125766
0.151992
0.128746
0.345707
0.235438
0.193715
0.314713
0.170469
0.294447
0.242591
0.171661
0.342727
0.303984
0.109673
0.127554
0.316501
0.241995
0.307560
0.315905
0.227690
0.261664
0.254512
0.266433
0.300407
0.370741
0.325441
0.347495
0.383854
0.332594
0.359416
0.427961
0.327826
0.229478
0.233650
0.385642
0.391603
0.492930
0.400543
0.307560
0.467896
0.430942
0.412464
0.269413
0.511408
0.515580
0.538826
0.401735
0.576973
0.529885
0.630617
0.723600
0.531673
0.532866
0.663996
0.494719
0.753999
0.742674
0.918508
0.786781
1.006722
1.064539
1.038909
1.269579
1.514554
1.692772
5.794764
21.800995
84.482431
190.192461
436.104536
685.074925
1000.965834
1015.943885
1015.943885
1015.943885
990.796685
763.869882
451.234579
280.764699
138.770938
69.835782
22.618771
9.085536
6.077886
5.687475
5.283952
5.180836
5.146861
5.031824
5.112886
5.477667
5.589724
##ZVALUE=380
0.296831
0.273585
0.264645
0.107884
0.117421
0.208616
0.160933
0.071526
0.154972
0.264645
0.276566
0.205636
0.182986
0.087619
0.201464
0.246763
0.180602
0.205636
0.218749
0.315905
0.303984
0.315905
0.236630
0.147820
0.378489
0.315905
0.233650
0.166893
0.264645
0.198483
0.324845
0.241995
0.273585
0.177622
0.223517
0.252724
0.396967
0.258684
0.287890
0.428557
0.352859
0.454783
0.249743
0.335574
0.402927
0.446439
0.404716
0.277758
0.436902
0.370741
0.373721
0.559688
0.497699
0.605583
0.557899
0.517964
0.661612
0.553727
0.561476
0.702739
0.685453
0.622869
0.736713
0.778437
0.839829
0.835657
1.168847
1.084805
1.350641
1.375675
1.847744
2.707839
14.517903
50.361753
167.943835
320.733786
621.907711
898.909569
1015.943885
1015.943885
1015.943885
1015.943885
844.013691
615.976453
348.478556
200.860500
83.567500
38.785934
11.245608
6.049871
5.030632
5.079508
4.614592
4.697442
4.615784
4.590750
##ZVALUE=385
0.049472
-0.028610
-0.062585
-0.127554
-0.075698
-0.187755
-0.070930
-0.129938
-0.111461
-0.135899
-0.028610
-0.047684
-0.050664
-0.035763
-0.020862
65.506697
-0.041723
-0.057817
0.068545
0.044703
-0.047684
-0.122786
0.007749
-0.150800
0.033975
0.091791
0.102520
0.023842
-0.115633
0.169873
0.245571
-0.098944
-0.042915
0.052452
0.123978
0.162721
0.045896
0.170469
0.117421
0.054836
0.003576
0.014901
0.035763
0.080466
0.129938
0.159740
0.120997
0.174642
0.137687
0.122786
0.122786
0.168681
0.238419
0.228882
0.308752
0.309944
0.272989
0.300407
0.283718
0.359416
0.220537
0.349879
0.421405
0.598431
0.659823
0.482798
0.662804
0.901818
1.005530
1.110435
1.262426
1.455545
1.429915
1.823902
5.910993
52.857995
148.789883
366.224647
631.361008
1005.240679
1015.696526
1015.696526
1015.696526
1015.696526
1015.696526
778.297782
530.282855
271.451473
148.718953
60.038567
24.371743
7.002950
4.761815
4.342794
4.416704
4.561543
##ZVALUE=390
0.154972
0.098944
0.201464
0.116825
0.250936
0.163913
0.265837
0.305772
0.275970
0.406504
0.263453
0.269413
0.301600
0.200868
0.268817
0.162721
0.184774
0.289679
0.302792
0.275970
0.194907
0.046492
0.300407
0.178814
0.239611
0.318885
0.387430
0.381470
0.205636
0.110865
0.191927
0.275970
0.076890
0.202656
0.357628
0.363588
0.250936
0.344515
0.351667
0.284910
0.328422
0.134706
0.315905
0.464916
0.238419
0.421405
0.439882
0.335574
0.320673
0.411868
0.350475
0.294447
0.362992
0.459552
0.441670
0.437498
0.524521
0.570416
0.459552
0.583529
0.465512
0.524521
0.589490
0.692606
0.604987
0.850558
1.057982
1.000762
1.110435
1.176596
1.352429
1.528859
1.538992
1.576543
1.675487
1.576543
3.359914
19.152761
64.640641
214.363933
410.106778
779.363513
1015.943885
1015.943885
1015.943885
1015.943885
1015.943885
983.749032
724.511743
394.793749
217.764974
84.330440
38.084984
11.696815
5.512834
4.568696
##ZVALUE=395
0.150800
0.162721
0.145435
0.248551
0.214577
0.034571
0.225902
0.045896
0.149608
0.149608
0.089407
0.181794
0.114441
0.161529
0.194907
0.150800
0.320673
0.171661
0.258684
0.309944
0.238419
0.151992
0.220537
0.104904
0.068545
0.108480
0.276566
0.141859
0.290871
0.238419
0.309944
0.285506
0.155568
0.236630
0.153780
0.360608
0.217557
0.178814
0.214577
0.316501
0.236630
0.303984
0.268817
0.319481
0.245571
0.297427
0.119805
0.244975
0.321865
0.259876
0.281930
0.306964
0.227690
0.449419
0.588894
0.440478
0.497699
0.516772
0.334978
0.495911
0.510812
0.467896
0.331998
0.542998
0.527501
0.706911
0.799894
0.779629
0.892878
1.024604
1.033545
1.176000
1.171827
1.212955
1.102686
1.230836
1.172423
1.468658
1.837611
8.690953
31.739473
119.519830
236.176848
466.830730
706.090927
1007.284522
1015.944481
1015.944481
1015.944481
992.282629
763.487816
457.049608
275.949836
117.101669
54.622889
17.375946
##ZVALUE=400
0.249743
0.232458
0.175834
0.169873
0.220537
0.141859
0.143647
0.094771
0.164509
0.108480
0.167489
0.204444
0.151992
0.029802
0.169873
0.100732
0.217557
0.327826
0.120997
0.231862
0.288486
0.203848
0.188947
0.230670
0.322461
0.187755
0.261664
0.243783
0.285506
0.297427
0.198483
0.211596
0.349879
0.458956
0.342727
0.343919
0.224710
0.169873
0.257492
0.348687
0.232458
0.302792
0.423789
0.299811
0.144839
0.307560
0.374913
0.228882
0.401735
0.310540
0.325441
0.370741
0.268817
0.236630
0.470877
0.424981
0.355840
0.465512
0.454783
0.412464
0.462532
0.481606
0.538826
0.650883
0.671744
0.528693
0.617504
0.824928
0.757575
0.842810
1.007915
0.926852
1.096725
0.866652
1.067519
0.892878
0.992417
0.985861
1.097918
1.426935
1.737475
4.554987
15.713573
61.621666
144.119859
351.829529
586.275458
940.558910
1015.944481
1015.944481
1015.944481
1015.944481
859.700441
544.897914
351.266861
175.503492
##END
