##TITLE=QP00302
##FORMAT=SPECTACLE-ASCII V-1.2
##DATA TYPE=ULTRAVIOLET SPECTRUM
##SECOND TYPE=ULTRAVIOLET SPECTRUM
##DATE=01/21/18
##TIME=17:15:53
##SPECTROMETER/DATA SYSTEM=SPECTACLE
##XUNITS=NM EM
##YUNITS=ENERGY
##YFACTOR=1
##FIRSTX=220
##LASTX=410
##NPOINTS=96
##3DDATA=Equidistant
##ZUNITS=NM EX
##FIRSTZ=210
##LASTZ=400
##ZPOINTS=39
##XYDATA=(Y..Y)
##ZVALUE=210
1.435876
1.730919
1.506805
1.487732
1.895428
1.954436
2.325773
2.564788
2.209544
2.461672
2.411604
2.487898
2.250671
1.951456
2.524853
3.141761
2.582669
2.737641
3.236532
3.872514
3.890991
3.870726
4.239678
5.234480
4.723668
5.561709
5.347729
4.837513
5.875826
5.099773
6.296635
5.623698
6.168485
6.295443
7.231832
5.934834
6.427765
6.663799
7.864833
7.105470
7.104874
7.426739
7.896423
7.261634
8.419752
8.317828
8.760691
8.421540
9.131432
9.155869
8.874536
9.409785
9.163618
9.827614
9.428859
9.317994
9.587407
9.709597
10.444522
10.832548
10.230541
10.619760
12.440681
10.459423
11.660457
12.107491
12.511611
15.956759
16.911626
22.295713
23.717880
28.519630
32.248497
39.372444
43.751597
43.278933
45.477748
45.171976
47.516823
43.090582
44.563413
37.216544
33.252835
25.958419
22.931695
17.265677
14.817715
14.160872
10.836720
10.993481
10.990500
10.816455
10.123849
10.724664
10.995865
10.519624
##ZVALUE=215
5.347729
5.571842
4.684925
4.445910
4.033446
3.454685
3.363490
3.482699
4.211664
5.080700
3.507733
4.367828
3.861785
3.926754
3.501773
3.229976
3.497601
3.256798
3.079772
3.941655
3.953576
4.350543
4.733801
4.743934
5.177855
5.612969
5.216599
5.228519
5.824566
5.878806
6.606579
6.096959
7.265806
7.402897
6.312728
6.822944
6.718636
6.961823
7.091761
8.146763
8.397698
7.904768
7.553697
8.415580
8.673668
9.347796
8.986592
9.290576
8.811951
9.456873
9.719729
10.200739
9.473562
10.530949
10.294914
10.845661
10.326505
11.960864
10.453463
12.003779
10.695457
10.612607
11.377931
12.198687
10.923743
12.321472
12.485981
15.195608
16.899705
19.796491
23.505688
27.916431
30.255914
35.689473
37.052631
37.152767
39.415956
37.826896
37.157536
36.021471
32.944679
31.744838
27.195811
23.881793
20.756721
16.382933
14.287829
13.303757
11.980534
10.709763
11.380911
11.405945
11.600852
12.477636
11.595488
9.795427
##ZVALUE=220
17.459989
20.268559
20.430684
22.275448
20.444989
18.624663
15.621781
11.823773
9.007454
9.429455
10.635853
10.025501
9.961724
10.420680
7.653832
6.953478
5.010962
5.284548
4.254580
3.395677
4.107952
3.716946
4.541874
5.399585
4.619956
5.747676
4.714727
4.751682
4.750490
4.613996
5.673766
5.337000
6.447434
7.034540
7.089972
6.894469
7.394552
6.842613
6.387830
6.879568
8.417964
8.014441
8.697510
6.999969
7.660985
8.511543
9.432435
7.936954
8.844733
8.900762
8.968711
10.370612
9.438992
10.709763
9.275675
9.846687
10.321736
11.030436
11.402965
9.468794
10.533929
10.872483
11.769533
10.756850
10.885596
12.123585
12.192726
12.886524
14.306903
19.615889
21.028519
24.967790
27.892590
29.890537
34.705997
35.721660
36.416650
35.888553
32.739639
30.266643
30.713677
29.062629
25.903583
21.319985
18.045902
15.259981
14.873743
14.548898
13.024807
11.822581
11.864901
11.974573
11.393428
11.338592
11.530519
11.009574
##ZVALUE=225
31.143427
35.394430
46.176910
61.778426
70.309639
72.708726
68.513751
60.701966
45.986772
30.539632
24.499893
22.290945
22.983551
24.228692
23.725629
23.302436
20.622611
15.647411
11.926889
9.405613
6.839633
5.441904
4.853606
4.979968
4.692674
5.352497
4.625916
5.131960
5.468726
5.844831
6.543994
6.480813
6.752610
7.007718
7.635951
6.698966
7.398725
7.191896
7.424951
8.800626
7.994771
8.677840
8.287430
10.454655
8.607507
8.729696
10.441542
10.395646
8.441806
10.574460
11.065602
11.135936
11.467934
11.759996
10.957718
11.103749
11.345744
12.082458
12.171865
12.837648
12.253523
12.642741
13.589859
13.489723
13.762712
13.704896
16.253591
16.655922
18.599629
21.134615
22.025704
25.682449
29.843450
33.703446
34.089684
34.404993
34.702420
34.664869
33.995509
29.707551
29.335618
25.864840
25.142431
22.348762
21.569729
19.260645
17.983913
17.112494
17.633438
16.924739
16.553998
17.730594
16.183853
14.676452
15.893579
15.311837
##ZVALUE=230
33.169985
38.384795
63.782930
108.065605
148.734450
186.815858
208.806992
207.671523
204.446912
178.681612
131.227970
93.637705
65.873861
51.230788
44.786930
50.683618
52.175522
50.571561
44.230819
38.663745
29.401779
18.349886
13.271570
8.959770
7.218719
5.680919
6.433725
5.617738
7.483959
6.625652
8.169413
7.616878
8.309484
8.745790
8.999705
8.917451
9.319782
9.491444
9.796619
9.199977
11.152625
10.535717
10.044575
10.806918
10.719895
10.718703
10.666847
11.182427
12.344718
12.624860
13.342500
12.986660
14.199615
15.096664
13.614893
15.149713
15.876889
15.710592
14.728904
16.845465
16.866922
16.903877
17.728806
17.256737
17.025471
19.705892
20.060539
20.865798
23.285747
26.370883
28.215647
32.312870
36.949515
40.092468
42.091608
42.439699
43.982863
41.145682
39.465427
41.209459
35.869479
34.895539
32.681823
30.609965
29.434562
25.716424
24.043918
24.432540
24.054646
23.584962
24.339557
23.615956
24.505854
21.789670
22.371411
23.119450
##ZVALUE=235
11.615753
12.772679
32.392740
71.501732
148.847699
219.686627
327.875018
407.125950
462.153554
472.403765
425.418615
363.556743
290.908813
195.836425
137.555003
93.698502
77.714920
82.924962
85.063577
86.690784
85.572004
71.812868
53.142905
40.286779
24.373531
18.220544
13.111830
10.391474
9.025931
8.460879
7.942915
8.572936
9.968877
10.605454
10.001659
9.548664
10.464787
10.806918
10.923743
11.304617
12.236834
12.874603
12.352467
11.999607
12.311935
13.922453
13.091564
13.980865
12.548566
14.098883
13.566613
14.373660
16.140938
13.529658
14.291406
15.939474
16.837716
17.045736
16.920567
18.485785
19.033551
18.269420
20.104647
20.503998
21.792650
23.414493
22.676587
23.877621
28.288960
29.625893
32.403469
36.129951
39.695501
44.441819
45.328736
46.729445
49.707890
46.797991
45.320988
45.412779
40.782690
40.072799
39.651990
35.564899
36.012530
34.695864
33.720732
32.037497
32.945871
31.774640
31.875968
30.381680
33.366680
30.791759
30.935407
32.707453
##ZVALUE=240
2.375841
2.003908
4.769564
13.822913
44.482946
94.136000
197.051764
313.971639
494.916439
612.437725
699.944496
717.648864
678.265691
547.342896
436.205864
281.499624
202.670693
136.057734
108.683705
103.792548
115.156770
116.150975
117.994547
105.972886
84.101558
69.646835
51.067472
34.466982
22.527575
15.726686
11.781454
10.449886
10.873675
9.454489
9.315610
10.110736
10.141730
10.675788
9.583831
9.896755
10.888577
10.496974
10.660887
11.263490
11.574626
12.966990
12.172461
12.800694
13.438463
12.141466
13.785958
14.805794
14.267564
13.941526
15.346408
14.263988
14.426708
15.811920
18.145442
18.395782
17.744899
18.222928
19.868612
19.197464
22.643805
22.909641
23.399591
24.563670
26.891828
30.571818
33.672452
37.685633
40.982962
41.701794
45.922995
46.576858
49.096942
46.440959
45.429468
46.821833
42.686462
42.024851
43.321848
40.596724
40.162802
39.785504
36.704540
37.033558
37.992597
38.097501
38.996935
38.848519
36.740899
36.829710
38.932562
38.991570
##ZVALUE=245
1.102686
1.195669
1.181960
1.638532
3.435612
9.888411
36.210418
81.598759
197.557807
320.056677
512.600541
643.800497
754.994750
783.569813
745.355487
609.092712
486.319661
325.384736
218.066573
134.824514
104.927421
104.890466
115.312934
128.960609
135.985613
128.715634
116.321445
100.002885
74.409842
53.948760
38.012862
24.989843
15.709996
10.176897
9.919405
7.967949
9.338856
9.633899
8.554459
8.860826
8.350611
9.203553
8.656979
9.375811
8.868575
9.911656
9.875894
9.691715
10.170937
9.840727
11.743903
10.609627
11.083484
11.848807
11.639595
11.634827
13.066530
12.857914
12.867451
14.782548
14.468431
16.269684
15.239716
16.783476
16.686916
19.887686
19.765496
22.169948
22.701621
26.089549
28.794408
29.925704
34.569502
37.212968
36.234856
38.896799
40.310621
38.986802
40.292740
40.847659
38.515925
37.531853
35.541654
38.670897
37.551522
36.484599
35.507679
37.375689
36.668777
35.499930
36.076903
38.226843
38.559437
38.311481
38.298965
38.605928
##ZVALUE=250
1.469851
1.102686
1.216531
1.229644
1.356602
1.590848
2.029538
5.546808
28.556585
65.868497
173.480511
296.478868
458.550453
666.322708
816.086531
929.586887
937.390924
827.841759
692.490935
470.033884
307.125449
197.133422
120.018721
98.783970
113.162994
125.296712
140.749812
140.206814
141.494870
126.619935
108.730793
82.792640
61.571598
36.730766
26.050806
14.776587
10.697842
8.620620
9.069443
9.376407
8.922815
8.578897
9.085536
9.277463
9.227991
9.888411
9.859800
9.076595
9.786487
9.981990
10.658503
10.293722
10.346770
10.612607
10.391474
11.345744
11.467934
11.067986
12.321472
12.346506
13.943911
13.498664
14.410615
15.040636
16.852617
16.508698
17.150640
19.892454
21.239519
24.269819
27.424693
28.717518
31.893849
33.914447
33.928752
35.677552
36.055446
35.319924
37.407875
35.375953
35.755634
36.013722
34.454465
35.384893
34.053922
35.488605
34.963489
34.910440
33.094883
34.661889
34.346581
35.613775
36.017895
36.256909
37.065744
37.205815
##ZVALUE=255
0.816584
1.075864
1.167655
1.145601
1.214743
1.422763
1.356602
1.333952
1.660585
3.937483
19.676685
51.012635
108.675957
251.431465
406.538844
660.759807
837.993622
1008.430719
1015.943885
1014.397740
891.230702
699.551702
429.537892
268.228650
144.218802
101.867914
93.622804
106.734633
129.966736
145.815611
149.102807
149.273872
133.659840
107.587576
85.171461
56.324601
41.257739
24.101734
16.829967
10.929704
9.461641
8.960962
9.694695
9.043813
9.129643
9.460449
9.733438
10.378957
9.656549
10.146499
10.273457
10.219812
10.535717
10.349751
11.789799
11.127591
10.930896
11.010766
11.543632
12.139678
12.371540
12.901425
12.852550
13.724566
14.011860
15.466809
16.608834
17.493963
17.841458
21.039844
23.028851
25.166869
26.945472
30.851960
29.712915
32.030940
30.820966
32.685995
31.448603
32.457709
31.462908
33.566952
31.284690
30.123591
30.152798
31.649470
31.387806
30.502677
32.587647
32.050610
33.273697
33.258796
31.865835
32.988787
32.737851
32.693744
##ZVALUE=260
0.962615
0.884533
0.906587
1.012683
1.066923
1.047850
1.047850
1.084805
1.169443
1.656413
1.488924
2.570748
9.359717
50.595403
111.881495
263.391733
426.669717
680.641532
870.528817
1015.909910
1015.909910
1015.909910
1015.909910
867.089629
582.788587
390.039682
215.914845
133.598447
88.474751
87.991953
105.913877
131.438971
145.088434
158.008933
158.112645
134.880543
116.046667
83.884001
64.390898
41.212440
28.669834
17.380714
13.516545
11.896491
11.754632
10.939837
11.052489
11.248589
10.378957
11.517406
11.420846
11.848807
12.240410
12.258887
11.596680
12.462735
11.939406
12.338758
12.604594
13.163686
12.682676
12.553930
13.805628
14.071465
14.686584
15.586615
16.916990
17.560720
18.203855
21.120906
22.276640
24.685860
25.580525
27.158856
27.027726
29.106736
29.176474
30.786991
29.081702
29.411912
29.358864
30.717850
28.847456
30.089617
29.535890
29.541850
29.968619
29.839873
29.348731
29.305816
29.404759
31.090975
31.308532
30.781627
32.247901
31.668544
##ZVALUE=265
0.828505
1.166463
1.003742
1.053810
0.871420
1.159906
1.073480
1.165867
1.144409
1.292825
1.170635
1.882911
1.798868
2.408624
5.465746
33.460855
91.825724
248.416662
419.493914
732.603669
981.578827
1015.943885
1015.943885
1015.943885
1015.943885
1009.057760
751.505494
527.844429
291.855931
172.177553
107.350945
75.673461
85.248947
115.536451
134.629607
156.902671
162.259936
153.545737
141.268969
113.046765
90.374947
63.311458
44.175982
26.539564
18.464923
13.583899
12.771487
11.953712
11.718869
11.868477
12.112856
11.798739
12.821555
12.001991
12.442470
11.833906
12.606978
12.130737
13.060570
12.854934
13.338923
14.050603
14.519691
13.911724
14.774799
16.181469
16.048551
16.384721
17.751455
20.807981
20.981431
22.507906
23.012757
26.043653
26.471615
26.995540
27.654767
27.623773
27.854443
27.264953
28.911829
28.019547
28.242469
27.872920
27.487874
26.560426
26.936531
29.599667
28.633475
28.247833
27.620792
28.389692
29.335618
28.678775
29.092431
29.406548
##ZVALUE=270
0.740886
0.800490
0.680685
0.754595
0.967979
1.034737
0.989437
0.868440
1.072884
1.202822
1.242757
1.115799
1.303554
1.429915
1.583695
2.081990
2.744794
13.734698
43.712854
152.849555
319.207907
558.495522
950.269699
1015.947461
1015.947461
1015.947461
1015.947461
1015.947461
1001.511812
766.533613
530.814528
271.885991
150.447488
76.201558
66.641569
88.666677
110.755563
140.199661
154.333711
164.807439
158.239603
139.511824
119.880438
89.969635
65.415502
41.957498
29.648542
18.783808
15.302896
12.319684
12.055635
11.881590
11.782646
11.707544
12.403727
11.923909
11.835694
12.248755
12.198687
13.248920
13.080835
12.833476
13.106465
13.017654
13.540983
14.604926
14.786720
16.471744
16.353726
18.916726
19.258857
20.930767
22.735596
23.644567
25.227666
25.696754
26.105642
25.798678
26.733875
25.465488
26.160479
25.893450
26.032925
25.822520
25.167465
26.345849
25.462508
25.961995
26.087761
26.245713
26.677847
27.747750
27.079582
26.659966
26.583672
27.546883
##ZVALUE=275
0.736713
0.832677
0.608563
0.661612
0.751615
0.857711
0.952482
0.799894
0.936985
1.026988
0.990629
0.897646
1.188517
1.117587
1.343489
1.524687
1.472831
1.702905
2.210736
6.148815
26.865005
79.334974
228.877664
430.424809
782.337785
1011.740565
1015.943885
1015.943885
1015.943885
1015.943885
1015.943885
911.867619
638.809800
335.440636
187.886953
83.022714
57.154894
62.275529
83.456635
112.276673
134.894848
152.658820
161.451697
154.059529
138.506889
110.941529
90.148449
63.074827
45.638680
27.689934
19.545555
12.825727
11.482835
10.698438
10.302663
10.182858
11.036992
11.414886
10.906458
11.861920
11.570454
12.252927
12.583733
12.984872
12.860894
14.085770
14.237761
14.951825
15.817881
16.858578
18.368959
19.710660
21.118522
21.541715
22.347569
23.455620
23.513436
24.716854
24.091601
24.305582
24.266839
23.561716
24.464726
24.952888
23.509860
24.637580
24.066567
23.521781
24.651885
25.270581
24.895668
24.867654
25.168657
24.759769
25.698543
25.232434
##ZVALUE=280
0.472665
0.472665
0.571609
0.494719
0.737906
0.657439
0.429749
0.576973
0.732541
0.746846
0.598431
0.690818
0.576973
0.794530
0.926852
0.986457
1.111627
1.078844
1.219511
1.753569
1.776814
2.491474
14.555454
56.945682
176.587701
327.302814
622.247458
923.334956
1015.841961
1015.841961
1015.841961
1015.841961
1015.841961
1015.841961
793.950558
448.759794
263.453722
112.865567
60.346723
46.275854
58.532953
85.026622
107.916594
133.913755
150.076747
155.869722
152.816772
135.127902
115.663409
84.367990
64.296722
41.795969
29.507875
19.069910
14.228821
11.351705
11.352897
11.144876
11.400580
11.214614
11.613965
12.297630
12.228489
13.388991
13.673902
13.870597
14.626980
14.929771
16.279817
17.087460
18.309951
19.378662
19.985437
21.626949
22.218823
22.165775
23.049712
22.696853
22.551417
22.775531
23.197532
23.334622
23.268461
23.726821
23.101568
24.044514
23.478866
24.395585
23.437738
23.791790
23.635626
23.155808
23.815632
23.094416
24.358630
24.275780
##ZVALUE=285
0.430942
0.686646
0.573993
0.543594
0.552535
0.646710
0.563860
0.583529
0.699759
0.669956
0.859499
0.629425
0.836849
0.931621
1.031756
0.881553
0.908971
1.122952
1.055598
1.299977
1.425743
1.309514
1.715422
2.309680
6.427765
23.168921
86.244941
189.293623
425.181985
679.057837
1015.941501
1015.941501
1015.941501
1015.941501
1015.941501
1015.941501
978.941917
592.465997
354.538560
166.532993
85.934401
41.312575
38.507581
57.843924
77.703595
109.004974
126.367807
145.840645
152.707696
148.762465
136.424899
112.472773
89.766979
63.694715
45.385957
28.422475
20.820498
15.410781
13.190508
12.881756
12.398958
13.297796
13.005733
13.192892
14.052987
14.363527
14.462471
15.179515
17.007589
17.455816
18.257499
19.397736
20.394921
20.625591
21.611452
22.614598
22.194982
21.966696
22.498965
23.220778
22.705793
22.993684
22.588968
22.779703
23.008585
22.863746
22.681952
23.737550
22.478700
23.007989
23.425817
23.438931
22.443533
22.926927
22.590756
22.762418
##ZVALUE=290
0.736713
0.814795
0.858903
0.664592
0.822544
0.725985
0.890493
0.824928
0.857711
0.982881
0.911951
1.007915
0.877976
0.973940
1.231432
1.077652
0.994802
1.201630
1.312494
1.311898
1.447797
1.495481
1.489520
1.780987
1.870990
2.244711
3.466606
12.069941
58.068633
128.393769
224.261880
481.567979
724.542737
1016.134620
1016.134620
1016.134620
1016.134620
1016.134620
1016.134620
763.005614
498.652458
242.480636
126.300454
47.635436
29.513836
36.949515
51.641464
74.942708
95.527768
122.258663
137.997866
147.357583
146.129727
130.891800
113.458633
85.685849
65.094829
43.453574
31.319857
20.673871
16.948581
14.455914
13.419986
13.468862
14.300942
14.308691
15.536547
15.185475
16.994476
17.562509
18.947721
19.554496
20.020604
20.331740
20.692945
21.433830
21.898746
22.391677
21.888614
21.982789
22.771955
22.783875
23.108721
22.748709
23.488998
23.064613
23.133755
23.308992
23.339987
22.747517
23.019910
22.912621
22.526979
22.781491
23.082495
22.334456
##ZVALUE=295
0.382662
0.481606
0.419617
0.449419
0.430942
0.472665
0.476837
0.558496
0.544786
0.561476
0.605583
0.623465
0.690818
0.626445
0.558496
0.760555
0.773668
0.780821
0.745654
0.919700
0.957847
0.932813
1.302958
1.272559
1.275539
1.354814
1.648664
1.873970
2.145767
4.445910
18.918514
82.700849
182.759762
420.425534
663.771033
997.488499
1015.945673
1015.945673
1015.945673
1015.945673
1015.945673
807.653666
559.244752
295.034647
160.600543
59.653521
29.849410
23.469925
30.584931
49.179792
67.592859
93.766451
112.754703
132.221580
140.566826
137.905478
125.900507
104.436874
84.566474
60.578585
45.366883
29.921532
22.558570
16.815662
14.872551
14.446974
14.903545
15.296936
16.041994
16.829967
17.346740
18.426776
19.645691
20.446777
20.562410
21.221638
21.241903
22.513866
22.223592
21.795630
22.392869
22.817850
23.113489
22.859573
23.222566
23.246408
23.137927
22.654533
23.151636
23.185611
23.005605
22.268891
22.420883
22.434592
22.194982
22.155643
##ZVALUE=300
0.417829
0.492930
0.413656
0.484586
0.416636
0.457764
0.529885
0.526905
0.462532
0.471473
0.487566
0.568628
0.524521
0.637770
0.568628
0.632405
0.732541
0.784993
0.857711
0.679493
0.792742
0.674725
0.903606
0.838637
0.872612
1.031756
1.083612
1.123548
1.466870
1.657605
1.800656
2.479553
12.619495
49.128532
161.891580
304.156542
591.458678
864.183903
1015.943885
1015.943885
1015.943885
1015.943885
1015.943885
1015.943885
701.409578
452.801585
221.398473
116.872787
42.589903
20.837784
20.332932
27.937889
43.819547
61.300993
86.315870
104.512572
125.004649
132.309794
130.034685
122.949481
103.565454
85.789561
63.735843
47.614574
31.401515
24.361610
18.016696
16.776919
16.134977
16.938448
17.170906
18.759966
19.489527
20.073652
20.306706
20.782948
21.915436
22.025704
22.382736
22.992492
22.254586
23.099780
23.134947
22.930503
23.083687
23.635626
23.096800
22.695661
23.015738
22.412539
23.369789
22.848845
22.634864
22.580624
22.177696
22.329688
##ZVALUE=305
0.372529
0.329614
0.452995
0.528693
0.488758
0.443459
0.541806
0.406504
0.574589
0.416636
0.382662
0.571609
0.351667
0.499487
0.474453
0.461936
0.534654
0.428557
0.611544
0.627637
0.656843
0.779629
0.648499
0.806451
0.754595
0.931621
1.111627
1.147985
1.326799
1.285672
1.487732
1.737475
1.810789
2.072453
6.811619
29.266477
119.469762
251.042843
524.958968
786.653757
1015.862823
1015.862823
1015.862823
1015.862823
1015.862823
1015.862823
978.987813
694.839954
357.005596
186.822414
63.801408
28.475523
15.932918
18.727779
28.122663
40.234923
63.020587
80.126524
102.524757
117.455721
127.831697
126.992464
118.281841
102.671981
81.110001
64.123869
44.418573
34.437776
24.345517
20.735860
19.159913
19.185543
19.921660
20.109415
20.672679
21.624565
21.644831
21.725893
21.970868
23.058653
23.109913
23.658872
23.189783
23.718476
23.941994
24.705529
24.082661
23.939610
24.137497
22.893548
23.402572
23.184419
22.826791
23.628473
23.226738
23.130774
##ZVALUE=310
0.424981
0.392795
0.488758
0.480413
0.592470
0.444651
0.517964
0.588894
0.574589
0.640750
0.630617
0.477433
0.407696
0.519753
0.572801
0.560880
0.537634
0.647902
0.566840
0.824928
0.652671
0.657439
0.753999
0.856519
1.101494
1.017451
1.211762
1.280904
1.060963
1.135468
0.995994
1.367927
1.422763
1.788735
1.912713
2.445579
2.924800
15.496612
57.482719
197.225809
386.455655
757.323503
1015.936732
1015.936732
1015.936732
1015.936732
1015.936732
1015.936732
1015.936732
966.916680
650.741458
319.017768
160.278678
51.082969
20.637512
14.624596
17.665625
26.804805
37.012696
55.996776
73.512793
96.685886
109.831691
119.804740
121.827722
113.149881
100.958943
81.936717
64.543486
45.869946
36.246777
28.153658
23.954511
21.470785
21.545887
22.112727
21.707416
21.924973
22.224784
23.056865
23.357868
23.855567
24.620891
23.955703
24.318695
24.686456
24.375916
24.812818
24.364591
24.641752
24.324656
23.834705
24.037957
24.186969
23.158789
23.095608
##ZVALUE=315
0.458956
0.423789
0.549555
0.459552
0.530481
0.437498
0.522733
0.530481
0.454783
0.687838
0.622869
0.425577
0.479817
0.484586
0.606775
0.464916
0.709891
0.502467
0.696778
0.558496
0.876784
0.619888
0.846982
0.890493
0.922680
1.078844
0.835657
0.935793
0.873804
0.954866
1.109838
1.014471
1.270771
1.387596
1.325607
1.860857
1.923442
2.115965
2.635717
5.654693
26.600957
135.715604
310.880542
700.873733
1015.940905
1015.940905
1015.940905
1015.940905
1015.940905
1015.940905
1015.940905
1015.940905
824.135542
437.594652
240.607858
84.201694
33.414960
14.203787
13.864636
17.517805
23.551583
36.928654
49.915910
70.375800
87.437630
106.201768
114.929676
117.637515
111.142993
95.540881
82.402825
64.459443
50.471425
36.763549
30.454993
25.492907
23.393631
22.878647
22.818446
23.670793
23.176670
23.325682
23.818612
24.520755
24.017692
24.940968
24.628639
24.836659
24.712682
25.093555
24.720430
23.871660
24.035573
23.901463
23.954511
23.678541
##ZVALUE=320
0.413656
0.566840
0.472665
0.303984
0.542998
0.362992
0.388622
0.463724
0.595450
0.418425
0.775456
0.388622
0.393987
0.735521
0.547767
0.643730
0.664592
0.705719
0.699759
0.476837
0.419617
0.740886
0.749826
0.715852
0.769496
0.806451
0.910759
0.808835
0.962615
1.012683
1.033545
1.066923
1.236796
1.325607
1.373887
1.542568
1.423955
1.848936
1.970530
2.270937
2.410412
3.218651
9.859800
60.742497
168.553591
477.410555
817.607641
1015.943885
1015.943885
1015.943885
1015.943885
1015.943885
1015.943885
1015.943885
1015.943885
641.514063
367.439985
154.791474
68.468451
20.575523
13.287663
13.836622
16.550422
23.430586
32.688975
49.832463
64.895749
86.230636
99.500418
111.459494
112.981796
108.644962
97.761750
78.164935
63.793659
48.262477
37.915707
30.170679
26.280880
24.685860
23.573637
23.890734
24.283528
24.311543
25.079846
24.520755
24.463534
24.830699
24.552941
24.319887
24.377704
24.293661
24.506450
23.840666
24.347901
23.523569
##ZVALUE=325
0.504851
0.335574
0.291467
0.340939
0.441670
0.343919
0.405908
0.506639
0.484586
0.524521
0.484586
0.515580
0.632405
0.465512
0.527501
0.522733
0.443459
0.454783
0.619888
0.585914
0.584722
0.673532
0.765920
0.673532
0.719428
0.774860
0.773668
0.775456
0.887513
0.852942
0.912547
1.033545
1.046658
0.920892
1.033545
1.281500
1.358986
1.335740
1.460910
1.746416
1.747608
1.943707
2.479553
2.939701
5.555749
35.176873
96.007586
281.919837
545.249581
1015.943885
1015.943885
1015.943885
1015.943885
1015.943885
1015.943885
1015.943885
1015.943885
936.626792
592.265725
266.396999
125.732422
34.882426
15.361905
13.268590
14.399886
17.767549
23.289919
34.675598
47.790408
67.716837
83.387494
98.534822
107.018948
108.617544
103.583932
89.620948
77.245831
59.864521
48.058629
37.297606
30.917525
26.656985
25.405884
24.365783
24.726987
24.367571
24.430752
24.773479
24.592876
24.409890
24.322867
23.828745
24.410486
23.611784
23.708940
23.869872
##ZVALUE=330
0.375509
0.476837
0.647902
0.292659
0.411868
0.468493
0.331998
0.294447
0.307560
0.269413
0.579953
0.476837
0.612736
0.432730
0.597835
0.556707
0.577569
0.560880
0.478625
0.617504
0.444651
0.685453
0.544786
0.713468
0.657439
0.596642
0.683665
0.676513
0.838637
0.896454
0.852942
0.687838
0.744462
0.904799
1.003742
1.196861
1.119971
1.031756
1.225471
1.364946
1.502633
1.485944
1.579523
1.711845
2.068877
2.192855
3.421903
12.879968
67.818761
160.253644
391.110778
672.090650
1015.943885
1015.943885
1015.943885
1015.943885
1015.943885
1015.943885
1015.943885
1015.943885
808.677673
497.659445
210.767984
93.352795
23.882985
12.815595
12.990832
14.200807
18.201470
23.960471
35.129786
46.550632
64.698458
79.026818
94.632506
101.261735
103.817582
97.591877
84.899664
73.376894
57.663918
47.250986
36.889911
31.778812
27.600527
25.293827
24.336576
24.647713
23.810863
23.940802
23.891926
23.711920
23.590922
23.400784
23.724437
22.785664
##ZVALUE=335
0.234842
0.318885
0.332594
0.493526
0.445843
0.355840
0.490546
0.414848
0.386834
0.394583
0.411868
0.356436
0.366569
0.497699
0.486970
0.413656
0.420809
0.575781
0.347495
0.560880
0.354648
0.395775
0.474453
0.556707
0.648499
0.645518
0.583529
0.558496
0.617504
0.787973
0.723600
0.707507
0.875592
0.948906
0.828505
0.728965
0.887513
0.856519
0.932813
1.051426
1.152754
1.084805
1.192689
1.397729
1.599789
1.539588
1.902580
2.159476
2.535582
4.600883
32.840967
94.784498
273.339748
493.911505
936.215520
1015.943885
1015.943885
1015.943885
1015.943885
1015.943885
1015.943885
1015.943885
830.321908
517.244935
232.432485
109.016895
32.698512
14.681816
13.035536
13.553500
15.682578
18.775463
25.013685
33.104420
46.990514
59.146881
76.139569
87.391734
97.048879
98.593831
91.952682
83.312988
69.888830
59.056878
46.046972
38.898587
31.479001
27.854443
24.834871
23.913980
23.520589
23.027658
22.782683
22.899508
22.621751
23.017526
##ZVALUE=340
0.325441
0.422597
0.262856
0.245571
0.166893
0.451803
0.339746
0.306964
0.263453
0.377893
0.409484
0.491738
0.376701
0.458956
0.352859
0.327826
0.265837
0.292659
0.396967
0.346899
0.331998
0.480413
0.422597
0.433922
0.454783
0.493526
0.487566
0.476837
0.477433
0.580549
0.674725
0.830889
0.626445
0.583529
0.662804
0.792742
0.827909
0.839829
0.745654
0.812411
0.929832
1.099706
0.925660
1.072884
1.146793
1.394749
1.388788
1.647472
1.765490
2.119541
2.277493
3.180504
11.215806
61.055422
157.860518
398.235917
680.642724
1015.926600
1015.926600
1015.926600
1015.926600
1015.926600
1015.926600
1015.926600
1006.215811
572.685003
325.387716
130.062699
48.526525
15.872717
13.402700
13.759732
14.355779
16.386509
18.978715
25.461912
32.533407
45.355558
57.604909
73.527694
84.353685
91.872811
92.574954
88.122487
80.781579
67.750812
57.640672
44.806600
37.878752
30.406713
26.412606
23.494959
22.622943
22.178888
21.756887
21.979809
##ZVALUE=345
0.270605
0.359416
0.230670
0.465512
0.335574
0.280738
0.324845
0.289679
0.355840
0.345707
0.363588
0.260472
0.412464
0.367761
0.453591
0.479817
0.298619
0.326633
0.363588
0.313520
0.455976
0.367761
0.528693
0.630617
0.446439
0.394583
0.461936
0.483990
0.405908
0.532866
0.613928
0.584722
0.674725
0.630617
0.657439
0.672936
0.694990
0.735521
0.859499
0.868440
0.938773
0.888705
0.854731
0.985861
1.082420
1.064539
1.222491
1.109838
1.372695
1.446605
1.522899
1.994967
1.817942
2.623796
6.274581
40.673614
117.974877
329.126716
575.750470
987.980962
1015.949845
1015.949845
1015.949845
1015.949845
1015.949845
1015.949845
1015.949845
691.326857
401.605964
163.823962
73.886514
21.669865
14.251471
13.821721
14.162660
14.506578
15.390515
18.612742
22.593737
31.251907
41.026473
55.473447
66.229701
77.670813
83.818436
85.932612
83.062649
75.591803
67.218542
54.782629
45.617819
34.738779
29.584765
24.474859
22.713542
21.762848
##ZVALUE=350
0.288486
0.485778
0.312924
0.293851
0.281930
0.302792
0.333786
0.266433
0.286698
0.274777
0.287890
0.471473
0.350475
0.488758
0.399947
0.389814
0.392795
0.357628
0.472665
0.281930
0.422597
0.503659
0.465512
0.500679
0.395775
0.414848
0.541806
0.555515
0.523925
0.440478
0.626445
0.569820
0.655651
0.717640
0.713468
0.598431
0.495911
0.738502
0.602603
0.708699
0.755787
0.867844
0.848770
0.806451
0.941753
0.978708
1.176596
1.062751
1.154542
1.450777
1.706481
1.850724
1.880527
2.040863
2.390742
2.635717
3.653765
20.534992
69.352984
222.288966
421.787500
837.592483
1015.928984
1015.928984
1015.928984
1015.928984
1015.928984
1015.928984
1015.928984
835.590959
489.149690
209.264755
93.347430
27.771592
15.500784
14.053583
13.659596
13.867617
14.430881
15.478730
17.863512
23.388863
29.124618
38.897991
47.258735
60.124993
68.667531
77.225566
79.297423
77.781677
72.497725
61.458945
53.203702
42.093992
35.933852
28.673410
##ZVALUE=355
0.348687
0.489950
0.450611
0.481606
0.451803
0.631809
0.469685
0.524521
0.540614
0.679493
0.549555
0.380874
0.613928
0.568628
0.448823
0.464916
0.613928
0.657439
0.486970
0.565648
0.537634
0.590682
0.533462
0.621676
0.732541
0.771880
0.751615
0.685453
0.685453
0.768900
0.667572
0.813603
0.712872
1.001954
0.910759
0.893474
0.973940
0.940561
0.957847
1.083612
0.967979
1.061559
1.068711
1.197457
1.133680
1.097918
1.393557
1.332760
1.602769
1.483560
1.866817
2.080798
2.122521
2.164841
2.521873
2.834797
3.319979
3.544688
4.082918
7.390976
41.139722
116.045475
321.337581
585.017800
1015.921831
1015.921831
1015.921831
1015.921831
1015.921831
1015.921831
1015.921831
1015.921831
983.129740
512.581468
152.381659
57.030916
20.652413
15.606880
14.997721
15.128851
15.134811
15.623569
16.307831
18.070936
21.603703
26.344657
35.389662
42.840838
55.092573
63.629746
70.374608
73.210001
71.390867
67.217946
58.733821
50.697923
##ZVALUE=360
0.459552
0.556707
0.513792
0.629425
0.677705
0.565648
0.447631
0.471473
0.571609
0.564456
0.651479
0.576973
0.819564
0.640750
0.658631
0.546575
0.783801
0.697970
0.588894
0.630617
0.510812
0.648499
0.662804
0.749826
0.803471
0.903606
0.866652
0.983477
0.989437
0.720620
0.754595
0.879765
0.984669
0.783801
0.975728
0.982881
1.024604
1.018643
1.100898
1.100898
1.176000
1.255870
1.395941
1.323819
1.462698
1.435876
1.328588
1.526475
1.643896
1.789927
1.792908
1.972914
2.155900
2.194643
2.317429
2.644658
2.678633
3.077984
3.280640
3.776550
4.378557
6.573796
18.875003
82.408786
198.164582
486.876965
812.832713
1015.855670
1015.855670
1015.855670
1015.855670
1015.855670
1015.855670
1015.855670
1015.855670
974.372625
478.438735
129.318833
40.993690
16.718507
15.449524
15.257597
14.634728
14.646649
14.653802
15.397668
16.640425
19.361973
23.131967
30.136704
37.223697
47.894716
55.910945
64.083934
66.779852
67.200661
##ZVALUE=365
0.464916
0.405908
0.539422
0.516772
0.451803
0.469685
0.468493
0.475645
0.624657
0.655651
0.599623
0.623465
0.569820
0.617504
0.622869
0.519753
0.375509
0.610948
0.626445
0.667572
0.716448
0.706911
0.694990
0.646710
0.701547
0.745654
0.820756
0.982881
0.759959
0.888705
0.999570
0.923872
0.831485
0.965595
1.044869
1.082420
1.046658
0.981688
1.276731
1.101494
1.226664
1.305938
1.137853
1.102686
1.425743
1.240969
1.418591
1.719594
1.271963
1.481771
1.511574
1.618862
1.679659
1.694560
2.021790
2.184510
2.431870
2.651811
2.771616
3.018975
3.403425
4.053712
4.555583
5.382895
9.314418
51.859021
145.006776
394.607782
704.099536
1015.782952
1015.782952
1015.782952
1015.782952
1015.782952
1015.782952
1015.782952
1015.782952
1015.782952
941.457152
285.421610
80.570579
20.392537
15.237927
14.507771
13.981462
13.623834
13.478994
13.461709
13.723969
14.808774
16.241670
21.162629
25.814772
33.239722
40.488839
49.952865
##ZVALUE=370
0.505447
0.605583
0.662804
0.580549
0.563860
0.742674
0.689626
0.657439
0.703931
0.734925
0.674725
0.525713
0.649691
0.778437
0.630617
0.712872
0.638962
0.644922
0.650883
0.736713
0.794530
0.717640
0.845790
0.698566
0.750422
0.671744
0.798702
0.650883
0.873804
0.732541
0.942945
0.812411
0.734925
0.828505
0.919700
0.926852
0.786781
0.964999
0.782609
1.014471
1.095533
1.039505
0.969768
1.001954
1.229644
1.246929
1.292825
1.087785
1.116991
1.220703
1.454949
1.465678
1.467466
1.500845
1.457930
1.778603
1.831651
1.843572
1.936555
2.313852
2.293587
2.690554
2.886653
3.113747
3.378987
3.935695
5.843639
33.244491
113.290548
326.457024
570.362806
985.731483
1015.943885
1015.943885
1015.943885
1015.943885
1015.943885
1015.943885
1015.943885
1015.943885
1015.943885
633.215904
233.570933
42.572618
16.050935
13.006926
12.523532
12.204647
11.934638
11.953712
12.239814
13.019443
13.703704
16.506910
19.039512
24.649501
##ZVALUE=375
0.388622
0.385642
0.236630
0.353456
0.385642
0.375509
0.480413
0.278950
0.392795
0.453591
0.400543
0.239611
0.263453
0.376701
0.417829
0.347495
0.364780
0.503659
0.281930
0.498891
0.516772
0.449419
0.518560
0.522733
0.377893
0.442863
0.479817
0.378489
0.586510
0.561476
0.546575
0.574589
0.490546
0.481606
0.509620
0.334978
0.705719
0.528693
0.475645
0.526905
0.484586
0.707507
0.637770
0.637770
0.677705
0.716448
0.790954
0.753999
0.636578
0.746846
0.801682
0.947714
0.974536
0.920892
0.995994
1.122952
1.099706
1.120567
1.283884
1.296997
1.479983
1.588464
1.567602
1.806617
2.006888
2.272725
2.554655
3.054738
3.601909
14.076829
61.670542
233.525038
461.105704
911.493897
1015.816927
1015.816927
1015.816927
1015.816927
1015.816927
1015.816927
1015.816927
1015.816927
1015.816927
1015.816927
731.949806
192.237496
39.394498
11.266470
10.701418
10.479689
10.906458
11.244416
11.537671
12.117624
12.731552
13.671517
##ZVALUE=380
0.342727
0.280738
0.349879
0.441670
0.200868
0.398755
0.307560
0.320673
0.360608
0.403523
0.241995
0.339746
0.348687
0.358820
0.362992
0.467896
0.423789
0.492930
0.404716
0.492930
0.407696
0.452995
0.351667
0.410676
0.274777
0.273585
0.465512
0.397563
0.431538
0.539422
0.412464
0.485778
0.490546
0.483990
0.531673
0.590682
0.532866
0.531673
0.427961
0.537634
0.511408
0.515580
0.549555
0.571609
0.666976
0.745654
0.654459
0.604987
0.737906
0.707507
0.754595
0.751615
0.741482
0.843406
0.988841
0.952482
0.970960
1.043677
1.036525
1.128912
1.121759
1.252890
1.167655
1.417994
1.503825
1.686811
1.929998
2.324581
2.527833
3.245473
3.661513
7.056594
28.024912
156.126618
377.066731
834.008455
1015.943885
1015.943885
1015.943885
1015.943885
1015.943885
1015.943885
1015.943885
1015.943885
989.345908
556.476712
312.854648
116.481781
44.421554
13.249516
10.140538
10.053515
10.493994
10.794997
10.997653
11.270642
##ZVALUE=385
0.259876
0.331998
0.409484
0.176430
0.346899
0.396967
0.407696
0.161529
0.236630
0.259876
0.410676
0.154972
0.330806
0.437498
0.446439
0.472665
0.404716
0.368953
0.334978
0.275970
0.417829
0.163913
0.368953
0.243783
0.347495
0.342727
0.421405
0.547767
0.391603
0.382662
0.428557
0.486970
0.463724
0.626445
0.566840
0.425577
0.420809
0.367761
0.478625
0.465512
0.574589
0.481606
0.609756
0.557899
0.608563
0.695586
0.606775
0.655651
0.813603
0.773668
0.846982
0.760555
0.652671
0.736713
0.814795
0.742674
0.939965
0.942945
0.893474
0.953674
1.070499
1.078844
1.102686
1.219511
1.385808
1.535416
1.646876
2.039671
2.205968
2.752542
3.056526
3.032684
3.547668
4.520416
21.108985
73.467493
261.855721
565.225482
1015.943885
1015.943885
1015.943885
1015.943885
1015.943885
1015.943885
1015.943885
1015.943885
1015.943885
712.823868
301.243663
136.134624
39.099455
14.497638
9.224415
8.511543
8.881688
8.857846
##ZVALUE=390
0.209808
0.181794
0.311732
0.159740
0.337958
0.293851
0.381470
0.322461
0.287890
0.358820
0.341535
0.129938
0.168681
0.349879
0.279546
0.287890
0.301600
0.480413
0.450611
0.265837
0.368953
0.298619
0.252724
0.458956
0.257492
0.380874
0.430942
0.342727
0.470877
0.295639
0.332594
0.356436
0.315905
0.395775
0.225902
0.396967
0.333786
0.416636
0.472665
0.449419
0.565648
0.415444
0.386834
0.552535
0.597835
0.506639
0.586510
0.481606
0.575781
0.583529
0.669956
0.672936
0.664592
0.644922
0.647902
0.836849
0.691414
0.783801
0.854731
0.837445
1.046658
0.976920
1.191497
1.349449
1.281500
1.240969
1.615882
1.584888
2.020597
2.156496
2.412796
2.615452
2.746582
2.767444
3.235936
3.521442
10.374784
53.896904
230.974555
479.628444
976.773500
1015.944481
1015.944481
1015.944481
1015.944481
1015.944481
1015.944481
1015.944481
1015.944481
885.151625
424.452424
204.826593
64.087510
22.269487
9.184480
8.228421
##ZVALUE=395
0.194907
0.151992
0.165701
0.081658
0.265837
0.262856
0.331998
0.164509
0.273585
0.286698
0.362992
0.250936
0.275970
0.330806
0.289679
0.250936
0.206828
0.345707
0.118613
0.289679
0.220537
0.446439
0.282526
0.283718
0.209808
0.387430
0.310540
0.378489
0.264645
0.268817
0.130534
0.310540
0.290871
0.369549
0.533462
0.414848
0.325441
0.314713
0.337958
0.368953
0.269413
0.569820
0.468493
0.475645
0.402927
0.490546
0.559688
0.408888
0.527501
0.580549
0.593662
0.650883
0.606775
0.388622
0.546575
0.733733
0.617504
0.709891
0.686646
0.695586
0.756979
0.870824
0.846982
1.009703
1.118779
1.107454
1.481771
1.535416
1.709461
2.024770
2.019405
2.126694
2.167821
2.206564
2.511740
2.596974
2.749562
3.008842
4.710555
36.943555
150.677562
489.797592
849.429965
1015.864015
1015.864015
1015.864015
1015.864015
1015.864015
1015.864015
1015.864015
1015.864015
991.078615
634.096861
264.207721
118.878484
33.935905
##ZVALUE=400
0.297427
0.330806
0.277758
0.346899
0.127554
0.228882
0.314713
0.415444
0.381470
0.256896
0.346899
0.317693
0.295639
0.374913
0.331998
0.219941
0.185966
0.234842
0.325441
0.387430
0.294447
0.364780
0.366569
0.275970
0.270605
0.321865
0.421405
0.374913
0.336766
0.447631
0.393987
0.445843
0.298619
0.188947
0.300407
0.315905
0.294447
0.434518
0.294447
0.390410
0.476837
0.642538
0.417829
0.631809
0.511408
0.750422
0.540614
0.559688
0.548959
0.656843
0.666976
0.712872
0.466704
0.470877
0.677705
0.820756
0.755787
0.627637
0.724792
0.848770
1.004934
0.728965
0.787973
0.973940
1.109838
1.270771
1.252890
1.263618
1.683831
1.883507
1.781583
2.130866
2.075434
2.102852
2.042651
2.171993
2.240539
2.284646
2.640486
3.100634
3.517866
11.606812
50.583482
212.723613
483.203530
1002.512574
1015.944481
1015.944481
1015.944481
1015.944481
1015.944481
1015.944481
1015.944481
1015.944481
754.420757
357.092619
##END
