##TITLE=DDW02
##FORMAT=SPECTACLE-ASCII V-1.2
##DATA TYPE=ULTRAVIOLET SPECTRUM
##SECOND TYPE=ULTRAVIOLET SPECTRUM
##DATE=02/12/18
##TIME=14:58:30
##SPECTROMETER/DATA SYSTEM=SPECTACLE
##XUNITS=NM EM
##YUNITS=ENERGY
##YFACTOR=1
##FIRSTX=220
##LASTX=410
##NPOINTS=96
##3DDATA=Equidistant
##ZUNITS=NM EX
##FIRSTZ=210
##LASTZ=400
##ZPOINTS=39
##XYDATA=(Y..Y)
##ZVALUE=210
14.538765
14.830828
12.034774
12.366772
9.709597
9.464622
9.128451
8.017421
6.410480
5.295873
3.157854
2.344847
2.325773
1.826882
1.934767
1.954436
2.212524
2.347827
2.459884
2.378821
2.038479
2.372861
2.334714
2.447963
2.960563
2.821684
3.356934
3.082752
3.796816
3.162622
3.462434
3.785491
3.531575
3.453493
3.831983
3.286600
3.816485
4.197955
3.927946
4.182458
3.980994
4.427433
4.462600
3.587604
4.910827
3.508925
4.645586
4.961491
4.105568
4.689693
5.141497
4.903674
5.033612
4.038811
4.434586
4.860759
5.270839
4.055500
4.589558
4.370809
4.512668
4.601479
5.742908
5.058646
5.314946
4.150867
4.815459
6.354451
6.632805
6.816983
8.106828
10.023713
10.221601
12.349486
12.577772
12.363791
12.748837
13.054609
11.732578
11.499524
11.355877
9.485483
9.515882
8.657575
6.335974
5.730987
5.829930
5.505681
6.011724
5.803704
8.455515
11.910796
13.779998
18.967986
22.992492
27.998686
##ZVALUE=215
32.490492
34.488440
30.746460
22.831559
21.315813
15.903711
15.649796
16.265512
15.657544
14.505982
11.327863
8.967519
6.896853
4.468560
4.583597
2.128482
2.453923
2.350807
2.257824
2.285838
2.681613
2.680421
3.033876
2.711415
2.796650
2.650619
3.584623
3.254414
3.276467
3.373623
3.321767
3.925562
4.212856
5.024672
3.683567
4.152656
4.446507
4.151464
4.530549
4.242659
4.783869
5.133748
5.116463
5.415678
5.251765
5.406737
5.062819
5.429983
5.314946
4.919767
4.743934
6.005764
5.134940
6.481409
5.536675
5.775690
5.057454
6.106496
5.560517
5.249977
5.682707
5.309582
5.113482
5.974770
5.832911
5.190969
5.678535
7.188916
6.305575
6.318688
7.693768
8.640885
8.628964
9.194613
9.271502
10.437965
9.284616
9.212494
8.705854
7.781982
7.677674
6.785989
5.557537
4.974604
5.633831
4.147887
4.496574
4.243851
4.509687
3.686547
3.611445
3.540516
3.374815
4.991889
6.321669
9.299517
##ZVALUE=220
68.701506
69.879889
72.331429
59.824586
52.181482
40.038824
32.789707
26.578903
24.767518
25.302768
24.917722
23.565888
20.743608
17.308593
13.191700
10.296702
6.177425
3.679991
3.378987
3.574491
2.512932
2.658963
3.235936
2.507567
3.136992
2.726912
3.643632
3.194809
3.435612
3.709793
3.914833
3.824830
4.487634
4.431605
4.469752
5.113482
5.881786
6.207824
6.221533
5.416870
5.553961
6.072521
6.070733
4.977584
4.624724
5.352497
5.337596
5.840659
5.443692
5.496740
5.525947
5.172491
5.741715
6.389618
5.465746
6.197691
5.433559
6.513596
6.234646
6.162524
5.705953
5.803704
5.992651
5.136728
5.546808
6.272793
6.245971
5.924702
6.136894
7.243752
6.912947
6.477833
7.813573
8.272529
8.934736
8.565784
8.471608
9.052753
8.251667
8.824468
7.900596
6.616712
6.413460
5.335808
6.109476
5.119443
4.495978
4.328489
4.074574
3.622770
3.770590
3.692508
3.775954
3.685951
4.434586
3.393888
##ZVALUE=225
85.690618
91.309547
105.904937
116.803646
118.819475
108.227730
91.932416
70.468783
58.958530
48.057437
39.680600
38.685799
41.276813
42.334795
38.144588
36.255717
26.798844
21.776557
16.537905
9.634495
6.143451
3.819466
3.200769
3.893971
3.756881
3.031492
4.500747
3.413558
3.749728
4.348755
3.850460
4.860759
5.510449
4.638433
5.102754
5.687475
5.810857
7.074475
6.463528
7.259846
6.149411
7.416606
6.560683
6.592870
7.309914
6.008744
6.908774
6.875992
6.944537
6.698966
6.258488
6.890893
6.898642
6.696582
6.693602
7.237792
6.174445
6.256700
7.233620
6.771684
6.366968
7.361770
7.457733
7.809997
6.347895
6.524920
6.438494
7.168651
6.983876
7.576942
7.407665
8.340478
8.797646
9.018779
9.313822
8.706450
8.779764
7.806420
7.752776
7.833838
7.272959
6.547570
6.551743
5.862713
6.357431
4.664660
5.271435
4.162788
4.554987
4.233718
4.125834
4.467964
4.403591
4.620552
3.743768
4.488826
##ZVALUE=230
55.254698
61.638951
91.972947
135.804415
164.229870
191.442966
204.890966
187.378526
171.228647
135.609508
101.755857
71.777701
59.616566
55.367947
59.350729
64.126849
60.724616
57.105422
50.446987
40.388703
32.239556
21.283627
13.093948
7.949471
5.346537
4.404783
3.765821
5.281568
4.318953
5.628467
5.034804
6.003976
5.876422
5.890727
5.276799
5.886555
7.891655
6.234646
7.110834
7.340908
7.337928
6.912947
7.653832
7.329583
7.019639
6.515980
6.897449
7.381439
7.231832
7.058978
6.803870
7.051826
6.686449
7.701516
7.494688
6.517768
6.812811
6.857514
7.585883
7.204413
7.273555
7.097721
8.050799
6.636977
7.612705
6.959438
7.616878
6.510615
8.121729
7.544756
8.678436
8.462667
8.618832
8.838773
10.021925
10.311604
8.667707
8.368492
8.376837
7.990599
7.107854
7.013679
6.713867
6.545782
5.665421
5.554557
5.653501
5.229712
4.820824
4.833937
5.603433
4.700422
4.745722
4.436970
4.548430
4.183650
##ZVALUE=235
14.627576
17.895699
36.235452
81.984997
126.182437
188.206434
249.116421
298.337936
315.271616
310.716629
281.475782
211.570859
159.507990
110.480785
91.018677
81.839561
81.217885
87.982416
95.960498
93.463659
83.591938
70.652962
54.816604
38.120747
24.381876
16.314983
10.855794
7.850528
6.148815
5.945563
6.291866
6.180406
6.225705
6.140471
6.214976
6.737709
6.101727
6.556511
6.574988
6.988645
5.961657
7.246733
7.798672
6.950498
7.685423
7.059574
7.694960
7.307529
7.243752
7.620454
7.079840
6.962419
6.690621
7.190704
6.996989
6.762743
7.718801
7.444620
7.331967
7.852912
7.335544
7.611513
7.125735
7.272959
7.086992
7.390976
7.333755
8.070469
7.826686
8.353591
8.009672
10.134578
9.562969
9.449720
9.367466
9.863973
9.918809
9.377599
8.758903
7.869601
8.537769
7.595420
6.465912
6.235838
6.150603
6.243587
6.045699
5.008578
4.809499
5.661845
5.195737
5.079508
5.016923
4.968643
4.553795
5.380511
##ZVALUE=240
1.764894
2.363920
5.494952
16.022921
32.412410
77.803731
124.008656
215.989947
286.251903
362.367630
407.704711
398.723483
371.711850
282.849669
223.405957
156.559944
116.535425
89.321733
88.674426
101.592541
107.661486
116.351843
111.037493
98.620653
77.811480
62.515736
43.134689
30.653477
18.176436
12.946725
9.070635
7.733703
6.630421
6.430745
6.609559
6.571412
6.732941
6.554723
6.413460
6.119609
6.410480
5.810857
6.223917
5.212426
6.255507
5.313754
6.488562
5.793571
5.375743
5.741715
6.049871
6.283522
6.247759
5.308986
6.595850
5.677938
7.044673
5.910993
5.730987
5.919933
6.273985
5.911589
5.598664
5.836487
6.070733
5.837679
6.023645
6.728768
6.806850
7.673502
8.130670
7.719994
8.253455
8.735657
8.896589
9.130836
8.639693
7.697940
7.221699
7.648468
6.667972
6.616712
7.165670
5.602837
5.771518
5.500913
5.782843
4.794598
4.546642
4.998446
4.223585
4.696846
4.308820
4.306436
5.408525
4.005432
##ZVALUE=245
1.439452
1.027584
1.143813
1.314878
2.581477
10.076761
24.440885
68.824887
122.130513
211.080909
300.133824
403.639674
456.568003
469.248891
447.488427
370.862484
298.756957
203.088522
149.707794
100.447536
90.642571
95.169544
108.415484
119.598508
127.796531
123.222470
107.165575
89.345574
66.928864
49.543977
34.197569
22.935867
13.949871
9.888411
8.241534
7.161498
6.889701
6.315708
5.781651
6.221533
5.865693
5.988479
5.720854
5.883574
4.815459
5.130768
5.048513
5.211830
4.818439
4.907846
4.855990
4.685521
5.036592
5.003810
5.162954
5.380511
5.018711
5.774498
5.242825
4.977584
5.693436
5.028844
5.139709
4.772544
5.268455
4.910827
5.135536
5.323887
5.441904
5.798936
6.707907
5.804896
7.631779
6.883740
6.839633
7.482767
7.342696
6.866455
6.579757
6.651878
6.165504
5.686879
4.791617
5.141497
4.747510
4.757643
4.150867
4.779696
4.118681
4.340410
4.075766
4.020929
4.083514
3.963709
3.592968
3.959537
##ZVALUE=250
1.516938
1.544952
1.400709
1.418591
1.170635
1.247525
1.918674
6.127954
17.804503
50.520897
100.199580
200.591683
289.763808
403.081775
468.511581
526.538491
515.365005
452.801585
383.927822
263.836980
185.709000
134.724975
90.127587
87.245703
99.489689
113.641620
129.230618
132.999420
128.179789
120.490789
98.504424
76.477528
50.873756
34.626722
21.348000
14.335513
9.344816
7.312894
6.844997
6.636977
6.530881
5.887747
5.614758
5.561709
5.508661
4.359484
5.707741
4.840493
5.060434
4.631877
5.131960
4.795790
5.174875
4.831553
4.976988
5.105734
5.555749
5.018711
5.145669
4.802942
4.958510
5.443692
5.478859
4.935861
4.631877
5.040765
5.467534
4.902482
5.700588
5.663633
6.167889
6.308556
6.282926
6.433725
7.020831
6.783605
6.716847
5.762577
5.994439
5.612969
5.745888
4.745722
4.654527
4.583597
4.730821
4.405975
4.641414
4.139543
4.301667
4.199743
3.442764
3.589988
3.385544
4.045963
3.694892
3.616810
##ZVALUE=255
1.086593
0.824928
1.033545
0.928640
1.364946
1.239777
1.156926
1.549721
1.437664
2.998710
13.812780
34.846663
70.553422
157.556534
243.058801
377.756953
466.865897
557.209849
581.063628
549.452901
468.733907
372.206569
238.372684
154.712796
94.539523
80.895424
83.860755
95.290542
118.609667
132.023692
134.064555
130.936503
122.164488
96.802711
77.375770
51.693916
35.065413
20.134449
13.049841
7.670522
6.498694
5.469918
5.550981
5.174875
5.563498
5.625486
5.321503
5.303621
5.305409
4.841685
5.289912
5.024672
4.868507
4.454851
4.423857
5.256534
4.747510
5.049706
5.029440
5.198717
5.255938
5.307794
4.994869
4.939437
5.038977
4.785657
5.432963
4.911423
5.014539
5.203485
5.630851
5.888939
5.586743
5.860925
6.199479
5.764961
4.964471
5.092621
4.750490
4.942417
4.568696
4.216433
3.891587
4.302859
3.325939
3.931522
4.030466
3.402829
3.209710
3.062487
3.271699
2.776980
2.907515
3.191829
2.874732
3.387928
##ZVALUE=260
0.968575
1.047850
0.874996
0.845790
1.144409
1.138449
1.173615
1.127720
1.070499
1.228452
1.660585
1.699924
5.213618
21.765828
49.797893
116.491914
198.269486
324.651599
432.370901
561.823845
619.381666
622.266531
547.973514
446.772575
300.884843
207.835436
123.301744
83.321929
67.892671
75.134635
92.816949
118.199587
129.973888
141.028762
138.907433
119.290948
102.657676
76.102614
55.976510
34.475923
21.539927
12.283921
8.486509
5.886555
5.655885
5.422831
5.542636
5.273819
5.282760
4.924536
5.215406
5.096793
4.787445
5.439520
5.440712
5.088449
5.239844
4.802942
5.020499
4.809499
5.224943
5.731583
5.281568
4.743934
5.015731
5.308986
5.227923
5.440712
5.778670
5.350709
5.833507
5.429983
5.856752
5.726814
5.696416
5.695820
5.308986
5.251765
4.652739
4.413724
4.238486
4.040599
3.906488
3.607869
3.227592
3.524423
2.997518
2.991557
2.933741
3.116727
2.975464
3.085732
2.860427
2.835989
3.266931
2.615452
##ZVALUE=265
0.889897
1.041889
0.858903
1.027584
1.016855
0.892878
0.991821
1.038909
1.015663
1.071692
1.103878
1.086593
1.258850
1.389980
3.225803
11.284947
41.556954
84.210634
174.081922
282.803774
404.762626
555.025935
631.240010
662.946701
614.227653
501.740575
397.214890
253.795981
166.899562
92.871785
66.284537
60.175657
74.198842
100.865960
119.790435
138.420463
139.954686
135.184526
121.679902
96.895695
76.991916
49.911737
35.821795
19.485950
12.426972
7.402897
5.888939
5.533695
5.618930
5.766749
5.616546
5.617738
5.589724
5.720854
5.342960
5.355477
5.611777
5.475879
5.690455
5.421638
5.611777
5.437732
5.283952
5.203485
5.019903
5.564690
5.381703
5.048513
4.966855
4.887581
5.505681
4.984736
5.607605
5.399585
5.483627
5.266666
4.410744
4.873872
4.383922
4.201531
3.855824
4.094839
3.397465
3.500581
3.186464
3.288984
3.072619
2.895594
2.528429
2.986789
2.963543
2.761483
2.575517
2.619624
2.968907
2.515912
##ZVALUE=270
1.009703
0.777841
0.840425
1.011491
0.805855
0.749826
0.934601
0.881553
0.889897
1.054406
0.947714
0.899434
1.359582
1.144409
1.112819
1.551509
1.653433
6.309748
18.868446
60.551763
122.210979
213.113427
377.061963
501.633883
641.178489
689.823031
672.722459
610.804558
478.751659
358.954668
246.580839
132.008791
79.486966
50.526857
54.985881
77.355504
96.805692
122.216940
136.502981
140.150785
136.742592
119.547844
101.875663
74.328780
56.509972
32.738447
22.200942
13.419986
9.241700
6.585717
5.909801
5.681515
5.916953
5.776882
5.814433
5.903840
5.513430
5.879998
6.246567
5.715489
6.051660
5.779862
5.634427
5.443692
5.484819
5.518794
5.455613
5.472898
5.323887
5.210638
5.550981
5.388856
5.760789
5.127788
5.531907
5.021691
5.216599
4.894733
4.075766
4.051924
4.031658
3.735423
3.437996
3.287792
3.179908
2.847910
2.912879
2.965927
2.708435
2.636909
2.884865
3.008842
2.849698
2.559423
2.588630
2.700686
##ZVALUE=275
0.811815
0.697970
0.906587
0.728965
0.616908
0.712872
0.826716
0.835657
0.920892
1.022816
0.853539
0.958443
0.971556
0.888705
1.172423
1.077652
1.260638
1.229644
1.346469
3.075600
11.153817
32.836795
96.435547
176.116824
328.705907
452.088714
594.089627
681.802630
723.065734
687.400699
609.727502
446.409583
316.057801
167.779922
99.077821
51.580667
42.005777
52.901506
71.540475
97.819567
117.176771
135.192871
139.792562
134.541988
121.804476
95.715523
76.467991
52.716732
36.623478
22.350550
14.646649
9.392500
6.976724
5.988479
6.180406
5.816817
6.252527
5.697608
5.959868
6.135702
6.250739
5.940795
5.667806
6.028414
5.646944
5.394816
5.211830
5.337596
5.362630
5.324483
5.578995
5.621910
5.508661
5.358458
5.312562
4.893541
5.027652
4.798770
4.853606
4.081726
3.705621
3.566742
3.673434
3.334880
3.470778
3.158450
3.254414
2.977848
2.839565
2.498627
2.633929
2.444983
2.688766
2.429485
2.686977
2.626777
##ZVALUE=280
0.761747
0.694990
0.608563
0.681877
0.629425
0.757575
0.678897
0.719428
0.860691
0.756979
0.628829
0.797510
0.851750
0.725985
0.947714
1.044869
0.991821
1.023412
1.129508
1.002550
1.253486
1.491904
7.115602
22.995472
73.485970
135.482550
255.790949
376.454592
542.053580
639.751554
698.349476
705.614686
642.644763
497.295856
373.183489
213.840604
130.602717
61.922669
38.654804
36.463737
48.118830
72.891712
91.668963
114.850998
129.888654
136.266947
132.365823
117.360950
97.569823
72.491765
54.312944
34.329891
23.371577
13.443828
9.652972
6.763935
5.954504
6.012917
5.884767
5.448461
5.603433
5.970597
6.080866
5.811453
5.729795
5.415678
5.475879
5.473495
5.302429
5.149841
5.333424
5.455613
5.158782
4.779696
5.561709
4.974604
4.767776
4.722476
4.324913
4.235506
3.417730
3.211498
3.693700
3.585815
3.170967
2.934933
3.048778
2.907515
2.797842
2.563596
2.461672
2.559423
2.582669
2.430677
2.210736
2.529621
##ZVALUE=285
0.752807
0.708699
0.591874
0.633597
0.625849
0.704527
0.790954
0.851750
0.736713
0.781417
0.911951
0.827909
0.885725
0.725985
0.892878
0.736713
0.794530
0.780821
1.033545
1.041889
1.104474
1.107454
1.210570
1.351833
3.748536
11.136532
40.312409
86.533427
187.153816
293.572545
454.262495
573.927760
675.090551
724.545717
691.076517
569.779873
453.210473
284.835696
180.037618
88.623762
47.748685
27.995706
30.564666
47.572851
65.885782
90.954900
108.096600
125.796795
132.606626
128.031969
117.349625
95.663667
78.143477
53.957701
37.770867
21.652579
13.664961
8.921623
6.768703
5.649924
5.288720
5.210638
5.239844
5.058646
5.369782
4.914999
5.086660
5.208850
5.192757
5.201697
5.055666
4.790425
4.794598
4.749894
4.952550
4.413724
4.302859
4.111528
3.862977
3.603697
3.244877
3.213882
3.118515
2.807975
2.838969
3.000498
2.850890
2.749562
2.711415
2.812743
2.634525
2.274513
2.427697
2.374649
2.310872
2.428889
##ZVALUE=290
0.509620
0.601411
0.621676
0.642538
0.944734
0.804663
0.659823
0.687838
0.634789
0.746846
0.623465
0.597835
0.593662
0.562668
0.728965
0.830889
0.871420
0.983477
0.917912
0.800490
0.902414
0.879765
0.876784
1.031756
1.147985
1.478791
1.988411
4.973412
23.044944
54.451823
126.999617
222.090483
343.757868
523.839593
635.115504
726.787448
724.855661
637.303591
529.542565
362.692475
244.841576
123.315454
66.070557
28.640628
21.524429
29.349923
41.267872
62.436461
80.859661
105.389953
117.820501
126.068592
124.184489
112.839937
95.737576
70.952773
52.366853
34.519434
22.485852
13.027787
8.819699
5.773902
5.332828
4.516840
4.504919
4.159808
4.058480
4.224777
3.946424
4.288554
4.195571
4.043579
4.170537
3.939867
3.937483
3.909469
3.778934
3.617406
3.220439
3.212690
2.960563
2.924800
2.720952
2.676845
2.373457
2.607703
2.476573
2.561808
2.461672
2.485514
2.454519
2.202988
2.161860
2.165437
2.164841
2.299547
##ZVALUE=295
0.616908
0.604987
0.623465
0.697970
0.717640
0.436902
0.627637
0.692606
0.636578
0.621676
0.504851
0.552535
0.621676
0.652671
0.698566
0.572801
0.676513
0.743866
0.674725
0.783801
1.015663
0.887513
0.857711
0.971556
0.902414
1.066923
1.132488
1.181960
1.523495
2.142787
11.623502
31.777620
89.357495
164.650679
313.001871
432.946682
593.348742
687.503815
731.223822
693.372488
578.011870
456.866622
283.210874
176.103711
81.305504
39.947629
18.838644
17.357469
27.491450
38.857460
60.033798
76.513886
98.674893
111.438632
120.744705
118.072629
105.517507
91.308951
68.992972
52.822828
33.083558
21.378994
11.868477
8.119941
5.266666
4.174709
3.479719
3.438592
3.318787
3.510714
3.376603
3.621578
3.303885
3.551841
3.277659
3.159642
3.425479
2.925992
2.922416
2.456903
2.506971
2.551675
2.403855
2.478957
2.187490
2.326965
2.443790
2.058744
2.100468
2.162457
1.776814
1.908541
1.943707
2.043843
2.117753
1.921654
##ZVALUE=300
0.488758
0.545979
0.589490
0.580549
0.628829
0.611544
0.576973
0.590682
0.609756
0.731945
0.708699
0.569820
0.668764
0.779629
0.561476
0.567436
0.629425
0.727773
0.488758
0.773668
0.723600
0.653863
1.064539
0.801682
0.963807
1.005530
0.906587
0.981688
1.110435
1.107454
1.436472
1.460910
4.540682
16.566515
57.135820
112.870932
232.620835
358.436704
526.299477
635.885596
709.865689
727.189779
674.862862
537.321568
406.989455
232.731700
143.492818
63.218474
28.823614
14.996529
15.089512
21.277666
35.271645
49.930811
72.875619
88.473558
104.900002
113.658905
111.691952
104.102492
87.314844
70.571899
50.145984
35.404563
20.148754
12.663603
6.954670
4.479885
3.532767
2.949834
3.079772
3.091693
2.722740
2.893806
2.791882
2.617836
2.590418
2.645850
2.391934
2.532601
2.156496
2.128482
2.212524
1.976490
2.103448
2.088547
2.058744
2.024770
1.975894
2.011657
1.762509
1.969934
1.712441
1.952648
1.680851
1.826882
##ZVALUE=305
0.703931
0.636578
0.580549
0.571609
0.599623
0.653863
0.661612
0.729561
0.625849
0.779629
0.593662
0.767708
0.799894
0.778437
0.964999
0.785589
0.870824
0.689626
0.719428
0.756979
0.743866
0.795722
0.867844
0.963807
0.746846
0.871420
0.860691
0.903606
0.991821
0.974536
1.153946
1.391768
1.484752
1.519918
2.956986
9.339452
37.052631
81.470609
183.608532
288.373828
451.794863
571.267605
696.704984
736.770630
698.799491
616.025925
468.620658
339.828730
195.512772
111.456513
41.186810
19.043684
10.994673
12.634993
21.694899
32.364726
50.765872
66.347718
86.981654
98.332763
106.793642
107.407570
97.306967
85.192919
64.252615
48.692822
30.616522
20.594001
10.495782
6.714463
4.328489
3.410578
2.891421
2.999902
2.776980
2.767444
2.516508
2.311468
2.151728
2.247691
2.205968
1.893640
2.232790
2.159476
1.967549
2.193451
1.899600
1.963973
2.046824
1.895428
1.814961
1.891851
1.890659
1.840591
1.856685
1.896620
##ZVALUE=310
0.535846
0.626445
0.660419
0.619888
0.546575
0.576973
0.479817
0.429749
0.361800
0.514984
0.549555
0.610948
0.542998
0.501871
0.529885
0.485778
0.743866
0.569820
0.666976
0.581741
0.596642
0.767708
0.636578
0.479817
0.728965
0.699759
0.827909
0.773668
0.805855
0.820756
0.903606
1.173615
1.057982
1.063943
1.126528
1.255870
1.505613
4.746914
15.557408
52.813888
107.342005
222.796798
340.559483
506.070852
620.383620
718.482733
721.503496
655.166507
558.353662
395.363569
271.945000
139.818788
75.552464
26.269555
11.486411
9.098649
11.384487
18.404722
27.512908
43.676496
58.742762
78.382492
90.355873
99.703670
100.423694
93.205571
83.004832
63.598752
47.246814
29.922724
20.245910
11.229515
7.037520
4.146695
3.276467
2.505779
2.333522
2.008677
2.011657
1.884699
2.041459
1.916885
1.876950
1.638532
1.879930
1.763701
1.643896
1.698732
1.919866
1.756549
1.738667
1.736879
1.835823
1.841784
1.874566
1.855493
##ZVALUE=315
0.458956
0.572801
0.471473
0.461936
0.577569
0.439882
0.480413
0.355840
0.569820
0.479817
0.448823
0.607967
0.647902
0.599623
0.495911
0.518560
0.629425
0.529885
0.590682
0.469685
0.676513
0.552535
0.577569
0.760555
0.603795
0.847578
0.815988
0.630617
0.787973
0.653863
0.865459
0.936985
0.797510
0.881553
1.043677
1.142621
1.014471
1.022816
1.339912
2.173781
7.518530
32.658577
74.470639
170.691609
278.022885
451.594591
565.058589
674.726963
715.797544
698.264837
595.730543
487.138629
315.202475
200.001001
91.903806
44.375658
14.200807
8.001924
8.048415
9.792447
16.427636
24.361610
39.829612
52.926540
72.433949
84.783435
93.485713
94.119906
85.597634
75.855851
57.981610
45.025945
28.475523
19.253492
10.778904
6.848574
3.881454
2.865791
2.240539
1.901984
1.872778
1.795888
1.756549
1.722574
1.469851
1.528859
1.834631
1.772642
1.804829
1.721978
1.713634
1.735687
1.702905
1.833439
1.886487
1.690984
##ZVALUE=320
0.499487
0.621676
0.475645
0.523925
0.364780
0.388622
0.529885
0.630617
0.562668
0.396967
0.436902
0.555515
0.640750
0.584722
0.592470
0.624657
0.581741
0.500679
0.594854
0.560880
0.565648
0.633597
0.699759
0.579953
0.581741
0.622869
0.569820
0.598431
0.811815
0.670552
0.667572
0.923872
0.778437
0.785589
0.674725
0.791550
0.802875
0.928640
0.975728
1.021624
1.250505
1.413822
3.646612
19.458532
49.576759
128.554702
212.674737
356.940627
476.594567
618.456602
679.679513
689.304471
636.664033
503.427982
387.641788
228.230953
134.644508
59.749484
26.615858
9.205937
6.320477
7.151961
8.885860
14.213920
21.231771
34.798980
47.635436
65.939426
78.326464
87.027550
89.231730
83.355904
73.452592
56.062937
41.939616
27.301908
18.363595
10.428429
6.430745
3.556609
2.588630
1.966953
2.081990
1.855493
1.711845
1.561642
1.679659
1.697540
1.430511
1.588464
1.661777
1.696944
1.539588
1.599789
1.609921
1.669526
##ZVALUE=325
0.552535
0.486970
0.445843
0.508428
0.456572
0.622869
0.582933
0.549555
0.351667
0.505447
0.407696
0.489950
0.507832
0.506639
0.432730
0.516772
0.606775
0.588894
0.536442
0.495911
0.625849
0.578761
0.640750
0.583529
0.477433
0.461936
0.531673
0.600815
0.651479
0.543594
0.625849
0.729561
0.738502
0.630617
0.634789
0.671744
0.773668
0.958443
0.947714
0.977516
1.005530
0.924468
1.076460
1.243949
2.469420
9.083748
37.140846
80.844760
181.922913
288.162827
449.376702
555.976629
659.049749
682.199597
635.570884
547.315478
391.465425
280.764699
157.272816
90.166926
34.995675
14.347434
6.442666
5.573630
6.281734
7.984638
13.841987
20.234585
34.479499
47.129989
63.682795
73.998570
82.628727
83.451867
77.046752
67.896843
52.457452
39.742589
24.861693
16.881824
9.231567
5.725622
3.431439
2.294779
1.829863
1.679659
1.669526
1.602769
1.654625
1.590848
1.455545
1.633763
1.588464
1.437664
1.516938
1.497865
##ZVALUE=330
0.513792
0.450611
0.550747
0.417829
0.516772
0.567436
0.597835
0.396967
0.562668
0.660419
0.514984
0.291467
0.605583
0.383854
0.570416
0.645518
0.480413
0.429749
0.370741
0.573993
0.505447
0.664592
0.706911
0.430942
0.528693
0.596642
0.504851
0.660419
0.565648
0.509620
0.557899
0.706911
0.686646
0.771880
0.594854
0.701547
0.679493
0.619888
0.744462
0.628829
0.724792
1.024604
0.908971
1.070499
1.048446
1.185536
1.277924
5.288720
16.457438
56.989789
111.895800
227.858424
339.532495
494.613647
596.922636
661.618710
645.009875
553.686619
447.176695
297.144651
195.169449
96.189976
50.564408
18.411875
7.883906
5.048513
4.990697
5.628467
7.546544
12.934804
19.614697
31.343699
42.843819
59.643984
69.434643
76.456666
77.558756
70.844889
62.334538
47.735572
36.401749
23.347735
16.145706
9.475946
6.098747
3.542900
2.738833
2.043843
1.756549
1.571774
1.791716
1.600981
1.436472
1.450777
1.508594
1.632571
##ZVALUE=335
0.444651
0.343919
0.387430
0.369549
0.488758
0.371933
0.543594
0.491738
0.481606
0.397563
0.386834
0.409484
0.472665
0.389814
0.407696
0.584722
0.452995
0.511408
0.472665
0.346899
0.416636
0.422597
0.511408
0.616908
0.562668
0.561476
0.541806
0.628829
0.622869
0.604987
0.754595
0.732541
0.615716
0.670552
0.655651
0.702739
0.628829
0.543594
0.730753
0.516772
0.659823
0.776649
0.811815
0.835657
0.952482
0.792742
0.989437
1.098514
1.256466
2.604723
8.461475
33.737421
72.122812
164.298415
269.714594
433.481932
547.839999
639.199018
656.644702
590.225458
494.418740
337.347984
226.925611
117.594600
61.937571
22.201538
9.999871
5.248785
4.492998
4.758835
5.178452
7.441640
11.017919
19.819736
27.959943
42.676926
52.881837
64.680576
70.662498
71.476698
67.103505
56.805611
46.770573
34.570694
25.503635
15.688539
10.300875
5.812645
3.520846
2.456903
2.079606
1.645684
1.763701
1.525879
1.586676
1.386404
##ZVALUE=340
0.465512
0.436902
0.623465
0.463724
0.349879
0.401735
0.629425
0.426769
0.378489
0.310540
0.444651
0.626445
0.500679
0.400543
0.470877
0.305772
0.414848
0.489950
0.499487
0.601411
0.478625
0.637770
0.500679
0.608563
0.594854
0.462532
0.532866
0.425577
0.421405
0.417829
0.434518
0.507832
0.551939
0.604987
0.576973
0.679493
0.729561
0.592470
0.549555
0.634789
0.663996
0.662804
0.767708
0.609756
0.789762
0.766516
0.780821
0.860691
0.935793
0.966787
1.083612
1.415610
4.106760
20.149946
49.540997
124.875903
214.025974
357.629657
474.455953
600.372553
644.551516
617.699623
541.628599
402.097702
282.898545
147.922635
81.438422
32.769442
13.978481
5.716681
4.605651
4.344583
4.611611
5.254745
6.661415
11.635423
17.272830
27.853847
37.795901
52.008629
60.625672
66.686869
66.838861
62.270761
56.285858
44.265985
34.879446
23.401976
16.767979
9.855628
6.297827
3.467798
2.377629
1.907945
1.793504
1.679659
##ZVALUE=345
0.257492
0.227690
0.291467
0.329614
0.372529
0.298619
0.388622
0.395775
0.420809
0.336766
0.316501
0.393987
0.333786
0.328422
0.294447
0.352859
0.496507
0.445843
0.551939
0.425577
0.440478
0.238419
0.415444
0.315905
0.422597
0.398755
0.441670
0.371933
0.378489
0.447631
0.464916
0.467896
0.552535
0.392795
0.540614
0.417829
0.457764
0.427961
0.469685
0.585914
0.641942
0.636578
0.502467
0.723600
0.649691
0.620484
0.575781
0.805855
0.752807
0.747442
0.846982
0.947714
0.936985
1.103878
1.899600
11.056662
31.646490
85.795522
155.008435
286.124945
398.865938
540.167689
616.311431
633.659959
585.396886
453.385711
338.285565
199.194551
111.994743
44.282675
20.277500
7.324815
4.604459
4.383922
4.005432
3.829598
4.237890
6.075501
9.125471
15.763640
23.865700
35.266876
44.554472
55.197477
60.264468
61.941743
59.307814
51.826835
44.540763
32.998919
24.449825
15.400648
10.271668
6.060600
4.112720
2.427697
##ZVALUE=350
0.522733
0.386834
0.437498
0.353456
0.409484
0.362992
0.476837
0.337958
0.428557
0.486970
0.424981
0.499487
0.506639
0.312924
0.381470
0.498891
0.448823
0.466704
0.314713
0.259876
0.440478
0.499487
0.462532
0.491738
0.444651
0.565648
0.373721
0.465512
0.418425
0.459552
0.487566
0.502467
0.527501
0.425577
0.445843
0.425577
0.501871
0.520945
0.457764
0.514984
0.556707
0.467896
0.610948
0.610948
0.686646
0.635982
0.676513
0.627637
0.775456
0.760555
0.777841
0.686646
0.662804
0.700951
0.878572
1.091957
1.443624
5.748868
17.548800
56.183934
107.371807
218.548775
320.995450
462.761521
556.516647
609.349608
590.064526
495.155454
384.714007
234.112740
141.238570
61.186552
27.678609
8.980632
5.069971
4.315972
4.057884
3.459454
3.545880
4.081726
5.477667
9.708405
13.620853
21.746755
28.987527
40.873885
47.783852
54.350495
56.683421
54.715872
49.823523
40.424466
32.678843
22.649765
16.309619
9.948611
##ZVALUE=355
0.370741
0.504851
0.412464
0.446439
0.443459
0.435710
0.357628
0.583529
0.365973
0.352859
0.415444
0.356436
0.422597
0.394583
0.427961
0.432730
0.519753
0.455976
0.473857
0.659823
0.324845
0.494719
0.477433
0.436902
0.468493
0.404716
0.478625
0.369549
0.480413
0.427961
0.463724
0.497699
0.473857
0.485778
0.570416
0.364780
0.405908
0.464916
0.373721
0.728965
0.627637
0.673532
0.709891
0.661612
0.578761
0.608563
0.676513
0.584722
0.574589
0.621676
0.717640
0.841618
0.796914
0.736713
0.679493
0.988841
0.960827
0.859499
0.969768
2.678633
9.095669
35.491586
74.377656
157.675743
253.737569
397.230983
492.028594
572.656989
581.546426
509.444475
418.492556
283.188820
180.689692
80.268979
39.220452
12.523532
5.921721
4.008412
3.412962
3.545880
3.394485
3.205538
3.545880
5.029440
7.205606
12.205839
17.630458
26.640892
34.400821
42.707920
49.044490
51.761866
50.596595
46.130419
40.224791
30.940771
##ZVALUE=360
0.525713
0.481606
0.460744
0.579953
0.518560
0.509620
0.617504
0.465512
0.484586
0.639558
0.450611
0.564456
0.526905
0.542998
0.500679
0.663996
0.456572
0.612736
0.539422
0.655651
0.549555
0.502467
0.391603
0.458956
0.480413
0.673532
0.580549
0.766516
0.652671
0.612736
0.501871
0.539422
0.628829
0.486970
0.523925
0.585914
0.559688
0.661612
0.661612
0.577569
0.715852
0.731945
0.733733
0.455976
0.623465
0.645518
0.778437
0.679493
0.692606
0.705719
0.697970
0.733733
0.838637
0.780821
0.835657
0.691414
0.897646
1.029968
1.082420
1.288652
1.225471
1.781583
4.240870
18.413663
44.954419
113.932490
191.859007
317.004919
421.835780
534.490943
566.020012
535.341501
459.695458
321.355462
218.331814
108.795762
57.744980
21.487474
9.179711
4.267693
3.831983
3.506541
3.189445
3.144741
3.128648
3.233552
3.946424
6.204844
9.018779
14.700890
21.085739
29.916763
36.477447
43.193698
46.364665
46.622753
##ZVALUE=365
0.092983
0.071526
0.181794
0.015497
0.086427
0.240803
0.208616
0.046492
0.163913
0.228882
0.221729
0.195503
0.302792
0.197887
0.236630
0.318885
0.136495
0.234842
0.300407
0.195503
0.317693
0.318885
0.214577
0.169873
0.253916
0.324845
0.300407
0.143647
0.240803
0.251532
0.231862
0.303984
0.249743
0.376701
0.330806
0.219941
0.352859
0.131726
0.282526
0.260472
0.379682
0.609756
0.251532
0.314713
0.275970
0.325441
0.381470
0.359416
0.278950
0.427961
0.489950
0.559688
0.523925
0.466704
0.476837
0.488758
0.540614
0.626445
0.538826
0.581741
0.680685
0.707507
0.669956
0.919700
1.866817
10.241866
28.514862
76.020956
140.427947
259.377956
358.584523
468.510985
519.645810
511.196852
454.644561
348.841548
252.620578
139.035583
77.142715
29.289722
12.549758
4.463792
3.305674
2.976656
2.838969
2.616644
2.443790
2.277493
2.434850
3.162622
4.370809
7.665753
11.437535
18.300414
24.219751
32.104850
##ZVALUE=370
0.376701
0.388622
0.371933
0.377893
0.408888
0.396967
0.364780
0.439882
0.406504
0.394583
0.375509
0.475645
0.542998
0.318885
0.356436
0.360608
0.314713
0.402927
0.313520
0.269413
0.321865
0.344515
0.313520
0.447631
0.422597
0.298619
0.453591
0.270605
0.359416
0.293851
0.454783
0.458956
0.478625
0.471473
0.264645
0.489950
0.512600
0.412464
0.585914
0.428557
0.657439
0.518560
0.499487
0.424981
0.566840
0.495911
0.386834
0.395775
0.620484
0.601411
0.601411
0.674725
0.565648
0.505447
0.777841
0.613928
0.652671
0.635982
0.693798
0.710487
0.886917
0.793934
0.694990
0.848770
0.925660
0.992417
1.372695
4.284978
24.705529
57.594776
138.067603
217.057467
348.157883
435.723662
512.771010
523.579717
479.602814
397.769809
274.643898
184.080005
88.896751
47.672987
18.379688
8.050799
3.853440
3.096461
2.937913
2.655983
2.496839
2.498627
2.211928
2.402663
2.843738
3.983974
6.801486
9.736419
##ZVALUE=375
0.284910
0.482798
0.449419
0.366569
0.391603
0.398755
0.433922
0.478625
0.364780
0.364780
0.283718
0.355840
0.405908
0.461936
0.473857
0.394583
0.267625
0.319481
0.354648
0.391603
0.405908
0.472665
0.387430
0.375509
0.397563
0.510812
0.422597
0.502467
0.310540
0.347495
0.445843
0.469685
0.369549
0.430942
0.429749
0.468493
0.397563
0.446439
0.459552
0.543594
0.537634
0.383854
0.456572
0.353456
0.474453
0.589490
0.519753
0.518560
0.402927
0.463724
0.474453
0.376701
0.530481
0.614524
0.528693
0.642538
0.542998
0.608563
0.822544
0.521541
0.626445
0.745654
0.588894
0.713468
0.632405
0.513792
0.798702
0.959635
1.160502
2.706647
8.729696
33.111572
70.296526
160.098672
247.574449
366.931558
438.565612
490.856767
481.219888
408.002734
322.712660
202.166438
129.471421
61.046481
30.836463
10.749698
4.922748
3.382564
2.948642
2.661943
2.463460
2.316833
2.147555
2.227426
2.136827
2.518892
##ZVALUE=380
0.322461
0.332594
0.340939
0.381470
0.220537
0.373721
0.362992
0.306964
0.277758
0.283718
0.392795
0.384450
0.385642
0.248551
0.259876
0.397563
0.421405
0.519753
0.382662
0.439882
0.492930
0.334978
0.424981
0.375509
0.288486
0.307560
0.452995
0.457764
0.395775
0.424981
0.588894
0.524521
0.330806
0.483990
0.454783
0.502467
0.445843
0.301600
0.272989
0.465512
0.365973
0.474453
0.351667
0.561476
0.380874
0.381470
0.420809
0.319481
0.543594
0.511408
0.480413
0.577569
0.521541
0.528693
0.466704
0.555515
0.653863
0.421405
0.585914
0.507832
0.435710
0.638962
0.611544
0.538826
0.666976
0.669956
0.724792
0.839829
0.763535
0.912547
0.999570
1.488924
6.249547
19.320846
59.985518
113.639832
219.184756
319.584012
443.681479
503.803492
505.041480
457.834601
358.423591
270.651579
159.935951
95.956922
40.904880
18.888712
6.251931
3.502965
3.053546
2.609491
2.442598
2.449751
2.247691
2.289414
##ZVALUE=385
0.244975
0.439882
0.305772
0.240803
0.369549
0.404716
0.388622
0.274777
0.322461
0.373721
0.307560
0.387430
0.212789
0.371933
0.480413
0.465512
0.450611
0.277758
0.284910
0.390410
0.298619
0.041723
0.295639
0.273585
0.563860
0.460744
0.319481
0.381470
0.381470
0.445843
0.315905
0.304580
0.406504
0.433922
0.456572
0.321865
0.460744
0.531673
0.465512
0.277758
0.397563
0.306964
0.576973
0.546575
0.347495
0.437498
0.338554
0.477433
0.698566
0.511408
0.522733
0.395775
0.467896
0.491738
0.495911
0.551939
0.517964
0.412464
0.513792
0.559688
0.404716
0.513792
0.405908
0.549555
0.687838
0.648499
0.744462
0.850558
0.809431
0.759959
0.827909
1.054406
1.033545
1.097918
2.872944
10.271668
40.215850
92.195868
205.170512
318.428874
476.195812
548.803806
581.010580
561.771989
452.835560
355.303884
222.297907
140.859485
64.303875
31.928420
11.298656
4.853606
2.828836
2.769828
2.597570
2.508759
##ZVALUE=390
0.204444
0.094771
0.230670
0.113845
0.162721
0.208616
0.188947
0.330806
0.286698
0.195503
0.247955
0.204444
0.189543
0.270605
0.284910
0.348687
0.242591
0.216961
0.249743
0.127554
0.167489
0.304580
0.195503
0.234842
0.234842
0.248551
0.253916
0.305772
0.398755
0.290871
0.366569
0.370741
0.246763
0.281930
0.279546
0.159740
0.266433
0.277758
0.304580
0.312924
0.394583
0.374913
0.319481
0.252724
0.189543
0.354648
0.381470
0.362992
0.320673
0.212789
0.264645
0.237823
0.418425
0.381470
0.312924
0.299811
0.383854
0.429749
0.384450
0.442863
0.277758
0.306964
0.331998
0.440478
0.468493
0.570416
0.325441
0.515580
0.551939
0.555515
0.790954
0.584722
0.644922
0.700951
1.010895
0.907779
1.378655
6.990433
22.279620
69.799423
135.323405
263.534784
366.083980
486.292839
556.869507
570.485592
521.717668
404.168963
304.598808
188.885927
111.967921
45.322776
20.722747
6.199479
3.340840
2.759695
##ZVALUE=395
0.414848
0.487566
0.365973
0.537634
0.449419
0.370741
0.394583
0.323653
0.399947
0.233650
0.403523
0.326633
0.266433
0.378489
0.434518
0.275970
0.441670
0.345707
0.392795
0.222921
0.342727
0.322461
0.433922
0.208616
0.315905
0.288486
0.445843
0.352859
0.420809
0.528693
0.381470
0.525713
0.468493
0.430942
0.305772
0.329614
0.305772
0.345707
0.394583
0.595450
0.478625
0.498891
0.451803
0.411868
0.398755
0.529885
0.634789
0.587702
0.432730
0.353456
0.543594
0.528693
0.429749
0.611544
0.517964
0.463724
0.554919
0.490546
0.558496
0.548959
0.522733
0.497699
0.430942
0.631809
0.544786
0.537634
0.678897
0.529885
0.573993
0.638962
0.919700
0.784993
0.661612
0.895858
0.646710
0.887513
0.896454
0.916719
1.097918
3.657937
13.476610
47.375560
90.379715
171.468854
255.192518
378.291011
451.612473
496.421456
486.750603
417.187810
331.656933
209.742785
132.326484
60.109496
29.523969
10.118484
##ZVALUE=400
0.554919
0.338554
0.404716
0.302792
0.360608
0.376701
0.259876
0.406504
0.397563
0.466704
0.407696
0.331998
0.377893
0.448823
0.371933
0.343919
0.331998
0.280738
0.420809
0.227690
0.408888
0.453591
0.241995
0.283718
0.453591
0.267625
0.396967
0.366569
0.549555
0.371933
0.453591
0.484586
0.570416
0.463724
0.329614
0.403523
0.530481
0.298619
0.361800
0.428557
0.329614
0.492930
0.386834
0.460744
0.419617
0.519753
0.366569
0.463724
0.443459
0.511408
0.443459
0.660419
0.451803
0.310540
0.454783
0.484586
0.523925
0.459552
0.507832
0.490546
0.502467
0.493526
0.466704
0.512600
0.483990
0.535846
0.514984
0.571609
0.695586
0.608563
0.614524
0.672936
0.749826
0.654459
0.579953
0.626445
0.763535
0.711679
0.840425
1.048446
0.998974
2.172589
6.865859
26.113987
57.536960
131.555796
210.612416
328.679681
407.947898
477.768779
484.687686
432.219505
360.008478
243.053436
163.193941
85.328817
##END
