##TITLE=DDW11
##FORMAT=SPECTACLE-ASCII V-1.2
##DATA TYPE=ULTRAVIOLET SPECTRUM
##SECOND TYPE=ULTRAVIOLET SPECTRUM
##DATE=02/01/18
##TIME=14:26:06
##SPECTROMETER/DATA SYSTEM=SPECTACLE
##XUNITS=NM EM
##YUNITS=ENERGY
##YFACTOR=1
##FIRSTX=220
##LASTX=410
##NPOINTS=96
##3DDATA=Equidistant
##ZUNITS=NM EX
##FIRSTZ=210
##LASTZ=400
##ZPOINTS=39
##XYDATA=(Y..Y)
##ZVALUE=210
11.097789
9.858608
8.545518
8.084774
9.031892
7.336736
6.906986
6.834865
4.211664
3.439784
2.219677
1.733899
1.233816
1.532435
1.344681
1.594424
1.486540
1.665950
1.470447
0.920892
1.665950
1.513958
2.358556
1.639724
1.894832
1.962781
1.862645
1.858473
1.802444
1.898408
1.880527
2.721548
2.371669
2.287626
3.080964
2.020597
2.480745
2.593994
2.811551
2.595782
3.097653
2.787709
2.446771
3.023744
2.601743
2.564788
2.307892
2.642870
2.859831
2.920628
2.317429
2.937913
3.128648
2.969503
2.806783
3.110766
2.093911
2.563596
2.877712
2.681613
2.877712
3.400445
2.952814
2.813935
3.214478
3.013611
3.183484
3.410578
4.053712
4.441738
5.182624
6.111860
6.107688
7.362962
5.526543
8.213520
7.693768
7.950664
6.817579
6.423593
6.105900
5.447865
5.108714
3.993511
4.215837
2.986789
2.856851
2.822876
2.789497
4.398823
6.417632
9.072423
11.782646
14.361739
18.903613
22.896528
##ZVALUE=215
27.563572
25.996566
21.585822
18.990636
17.465949
14.636517
12.352467
12.617707
10.971427
10.055900
8.375645
5.976558
5.154610
3.596544
2.423525
1.502633
1.464486
1.381636
1.655817
1.855493
1.560450
1.820922
2.033710
2.201796
1.685619
1.945496
2.137423
1.975894
2.362728
1.881719
2.440810
2.326965
2.338886
2.404451
2.334714
2.568960
2.694726
2.317429
2.593994
2.602935
2.458692
2.371669
2.707839
2.674460
2.847910
2.212524
2.337694
2.764463
3.060699
2.952814
2.909899
2.503991
2.941489
3.773570
2.387762
2.648830
2.880692
2.423525
2.659559
2.752542
2.871752
3.464818
2.783537
2.766848
3.365874
2.987981
3.457665
3.667474
4.046559
4.360676
4.192591
5.181432
5.740523
6.217957
7.168651
8.063912
7.248521
7.398725
6.502867
6.303787
4.857779
5.899668
4.412532
4.252791
4.158616
3.061891
3.347993
2.825856
1.930594
2.530813
3.104806
2.399683
2.177954
3.910661
5.187988
6.884933
##ZVALUE=220
62.683821
58.109760
59.140921
55.475831
45.687556
35.539865
28.384924
22.044778
20.206571
20.846725
20.789504
19.419789
18.120408
14.585853
10.530949
8.440614
4.608631
3.669858
2.609491
2.195835
2.020597
1.700521
2.039671
2.210736
1.872778
2.748966
2.650619
2.650619
2.111793
2.470613
2.255440
3.182888
2.729893
2.750754
2.968907
2.825856
3.048778
3.069639
3.229976
2.760887
2.667904
3.068447
3.110766
3.072619
3.007650
2.760887
3.146529
2.699494
3.402829
2.954602
2.708435
3.361702
3.329515
2.871752
2.778769
3.092885
2.822876
3.036857
3.689528
3.227592
2.787709
3.486872
2.967715
4.115701
3.572702
3.072619
2.997518
3.594756
4.708767
4.750490
4.538894
5.919933
6.548762
6.468892
6.795526
8.352995
7.319450
8.102655
6.454587
6.894469
5.760789
5.440712
5.041957
4.597902
3.530979
3.468990
3.156662
3.277659
2.942681
2.482533
2.798438
2.185702
2.718568
2.767444
2.656579
2.651811
##ZVALUE=225
77.191591
81.496835
91.540813
107.863545
107.933879
97.948909
87.377429
65.062642
51.550865
39.598942
32.874942
32.101870
32.547712
32.142997
30.351877
27.976632
21.127462
16.759634
12.876987
7.639527
5.063415
2.826452
2.009869
1.869798
2.671480
2.352595
2.399683
2.286434
2.494454
3.095865
2.566576
2.914667
2.587438
2.878904
2.922416
3.580451
2.677441
3.054738
3.036857
3.439784
3.256798
3.487468
3.628731
3.441572
3.589988
3.184676
3.601909
3.321767
3.725886
3.555417
3.522635
3.603697
4.130602
3.668666
3.393888
3.854632
3.156662
3.711581
3.944635
3.465414
4.341602
3.956556
3.533959
4.541874
4.100800
4.258752
4.333854
4.286766
5.399585
4.737973
6.260872
7.031560
6.041527
7.362962
7.563829
7.801652
7.475615
6.993413
6.849766
6.276965
5.886555
5.219579
4.157424
4.703999
3.774762
3.307462
2.935529
2.970695
3.312826
3.383756
3.072619
3.020763
2.791882
2.817512
2.436638
3.046989
##ZVALUE=230
48.652887
54.465532
83.962679
123.469830
152.338743
184.604526
186.032653
185.516477
155.745745
129.487514
88.301897
68.735480
53.252578
49.631000
48.981905
51.832795
52.956939
50.079823
46.994686
32.960773
27.929544
15.217662
10.180473
5.743504
3.575683
3.120899
2.934933
2.888441
3.238916
3.500581
3.658533
3.490448
3.716946
4.168749
3.397465
3.175735
3.687739
3.832579
4.113913
3.968477
4.065633
3.031492
4.093647
3.924966
3.261566
3.787875
3.635883
3.299713
3.956556
4.172921
4.635453
3.886819
3.635883
4.055500
3.292561
4.516840
3.506541
3.285408
3.974438
3.626943
4.202724
4.272461
4.245639
4.311800
4.061460
3.894567
4.940629
4.817843
4.873872
4.835725
6.632805
6.026626
7.683635
7.199645
7.237792
7.766485
8.000731
8.000731
6.728768
6.201863
6.066561
5.968809
4.645586
5.060434
5.200505
4.395843
3.909469
4.579425
4.108548
3.896952
4.052520
3.642440
3.776550
2.764463
3.803968
3.466606
##ZVALUE=235
13.374686
15.935898
40.449500
67.804456
123.713613
171.164870
236.079693
279.669762
305.022001
299.808979
253.978968
203.392506
158.828497
105.994940
82.137585
73.418617
71.289539
80.191493
78.674555
79.889894
74.019432
60.021877
45.079589
31.025410
19.921660
14.043450
9.233952
6.624460
5.967617
4.299879
5.418658
5.236864
4.420877
4.508495
5.047917
4.835725
4.501939
4.750490
4.413724
4.741549
4.165769
4.140735
4.652739
4.476905
4.091859
3.947616
3.934503
3.868937
4.096627
4.461408
3.725886
4.353523
3.923774
4.752874
4.611611
4.267693
4.701614
4.052520
4.337430
4.391670
3.965497
4.223585
4.277825
3.698468
5.084872
5.248785
4.447699
4.970431
5.538464
6.185770
6.635785
7.058978
7.921457
8.522868
7.954836
8.887649
8.145571
8.019805
7.809997
6.656647
6.027818
7.679462
5.489588
5.771518
4.490614
4.878640
5.274415
5.076528
4.834533
4.529953
4.448891
4.555583
4.191995
4.461408
4.080534
3.574491
##ZVALUE=240
1.048446
1.097918
4.100800
17.619729
36.067963
86.176991
138.046741
232.381821
314.150453
378.329754
443.454981
440.467000
386.067629
330.256820
245.833993
179.668665
119.752884
99.317431
94.355941
102.151632
108.149648
119.216442
110.569596
93.187690
78.183413
56.943893
42.459965
29.029846
18.428564
12.461543
9.288788
8.620620
7.667542
6.770492
7.729530
6.698966
6.656647
5.301833
6.255507
6.080866
5.530715
5.070567
5.322695
4.916787
5.069971
4.410744
4.556775
3.962517
3.878474
5.075932
4.340410
4.628897
4.108548
5.026460
4.168749
4.993677
3.983974
4.090667
4.058480
4.898906
3.778934
4.620552
5.318522
4.816651
4.523993
5.051494
4.515648
4.899502
5.883574
5.915761
7.216930
7.752776
8.294582
7.716417
8.479953
10.191798
8.796453
8.274913
7.561445
7.168651
6.616712
6.532669
5.871654
6.636977
5.537868
5.502701
4.998446
4.997849
5.354881
4.946589
4.679561
5.479455
5.387664
4.721880
4.555583
4.440546
##ZVALUE=245
0.695586
0.757575
0.858903
0.872612
2.722740
8.733869
30.500889
62.611699
142.223835
220.092535
338.565707
422.102809
486.063957
512.491465
500.409603
413.204432
338.448882
234.396458
166.915655
110.751987
94.718933
95.348954
112.307668
121.406913
125.590563
121.417642
104.210973
90.278983
66.439509
51.098466
33.699870
22.146702
16.447902
11.110902
9.843707
9.078979
7.222891
7.771850
6.593466
5.802512
5.640984
5.334616
4.906654
4.728436
4.220605
3.972650
4.669428
4.023910
4.198551
3.883839
3.981590
3.646612
3.621578
3.888607
3.646612
3.965497
3.845692
4.217625
3.729463
3.617406
4.122853
3.229976
3.856421
3.925562
3.819466
3.906488
3.990531
4.471540
4.151464
5.381703
5.802512
6.054640
6.357431
7.332563
7.544756
7.885695
7.826686
7.188916
6.634593
6.255507
6.574988
5.895495
5.186796
5.240440
5.151629
4.081726
4.185438
3.797412
4.593730
4.285574
4.041791
3.918409
3.905892
3.517866
3.907681
4.006624
##ZVALUE=250
0.566840
0.643730
0.683665
0.545979
0.584722
0.613928
0.878572
5.702972
19.652843
56.118965
105.050802
209.945440
304.674506
427.095890
515.213013
571.160913
579.046011
509.302616
434.141755
302.674770
216.297507
149.517655
102.197528
90.652704
103.128552
115.714669
131.166577
130.716562
125.481486
116.033554
95.824599
76.624751
52.883625
36.290884
20.955801
15.220642
9.868741
8.111596
6.871819
5.613565
5.723834
5.487800
5.407929
5.355477
4.684925
4.311800
4.347563
3.874898
3.756881
3.873706
3.139973
3.387928
2.999902
3.624558
3.096461
3.593564
2.708435
3.235936
2.463460
3.356934
3.573895
2.826452
3.260970
3.573895
3.412962
3.817677
3.619790
4.036427
3.831983
4.144907
5.108714
5.452633
5.775690
5.450845
5.648732
5.475879
5.825758
5.956888
5.334616
5.066991
4.969835
4.597902
4.430413
3.337860
4.519820
4.076958
3.522635
3.471971
3.316998
3.142953
3.611445
3.294945
3.037453
3.344417
3.311634
2.840757
##ZVALUE=255
0.469685
0.369549
0.535846
0.637770
0.515580
0.591874
0.726581
1.080632
1.135468
2.232790
14.980435
35.139918
77.069402
168.499947
261.737704
409.340858
509.865880
612.965822
643.985868
603.287816
528.775454
425.854921
274.922848
182.597637
107.318759
85.345507
83.022714
99.260807
120.766759
132.045746
135.223866
133.669972
121.573806
95.475912
73.797703
48.875809
32.647848
19.761920
12.083650
7.229447
5.452633
4.900694
5.234480
4.905462
4.617572
4.210472
3.655553
3.705621
3.740788
3.624558
3.052950
3.245473
3.382564
3.227592
3.345609
2.624989
3.016591
2.961755
3.073812
2.971888
2.877712
3.347993
2.518892
2.797842
2.994537
2.883673
3.098845
3.365874
3.418922
4.004836
4.508495
4.497766
4.457831
4.625916
5.252957
4.930496
4.157424
4.839897
4.718900
3.950596
3.581643
3.263950
3.192425
3.085732
2.845526
2.946854
2.621412
2.950430
2.748966
2.632737
2.814531
2.746582
2.699494
2.408624
2.136827
1.832843
##ZVALUE=260
0.655651
0.434518
0.507832
0.559688
0.514984
0.635982
0.704527
0.498891
0.767708
0.634789
0.893474
1.751781
5.580783
23.940802
54.484606
131.253600
218.307972
367.700458
485.600829
629.215837
698.531866
695.716739
632.257462
526.721478
354.583859
244.899988
143.652558
96.100569
72.074533
77.361465
97.760558
116.494894
133.300424
139.787793
135.204792
119.985938
94.524622
75.287819
50.330758
33.418536
18.728971
11.227727
6.513596
4.828572
3.838539
3.330708
3.739595
3.715754
2.958775
3.394485
3.265738
2.967715
3.096461
3.005862
3.049970
2.800822
2.344847
2.949834
2.661943
2.255440
2.409816
2.368689
2.395511
2.662539
2.455711
2.626777
2.628565
2.775788
2.669692
3.017783
3.108978
3.881454
3.602505
4.064441
3.991723
3.379583
3.607869
3.728867
2.833605
3.186464
2.986789
2.924800
2.806783
2.484918
2.552867
2.194643
2.061725
1.927614
2.275705
2.085567
1.983643
1.824498
1.891851
1.776814
1.844764
1.832843
##ZVALUE=265
0.341535
0.324845
0.482798
0.359416
0.511408
0.384450
0.456572
0.442863
0.554919
0.597835
0.525713
0.886917
0.873804
0.909567
3.009439
14.462471
38.741827
100.290775
174.825788
335.285664
464.658737
563.960671
729.807019
761.898756
704.806447
610.808730
456.740856
326.684713
181.404948
115.681887
69.830418
61.879754
76.155663
96.353889
120.128989
134.831667
137.549639
131.968856
111.352801
94.767809
68.310499
48.908591
29.540658
17.285943
9.507537
5.311966
3.713965
3.423691
3.062487
2.733469
2.684593
2.945662
3.128648
2.889633
2.833605
2.795458
2.355576
2.576709
2.137423
2.454519
2.242923
2.212524
2.521873
2.410412
2.333522
2.389550
2.795458
2.393723
2.715588
2.795458
2.769828
3.383756
3.360510
3.743768
3.473759
3.582835
3.251433
3.055930
2.972484
2.732873
2.139807
2.320409
2.217889
2.202988
2.221465
2.093911
1.754761
1.694560
2.028942
1.889467
1.963973
1.710653
1.561642
1.722574
1.449585
1.787543
##ZVALUE=270
0.422597
0.411868
0.398755
0.314713
0.491738
0.261664
0.413656
0.401735
0.335574
0.622869
0.731945
0.672936
0.774860
0.873804
0.983477
1.024604
1.132488
6.617904
19.786954
66.819787
134.710670
239.864588
422.714949
572.080016
732.934475
792.827010
786.314011
714.887977
560.706854
426.549911
299.634933
159.775615
93.507767
55.001974
53.094625
74.107647
95.305443
119.717717
133.139491
138.561726
133.772492
115.162730
96.898675
70.521832
49.431920
28.017759
18.036962
9.192824
6.400943
3.748536
3.277659
3.021955
3.055930
2.720952
2.909899
2.825856
2.557635
2.799630
2.640486
2.711415
2.365708
2.353787
2.126694
2.362728
2.255440
2.055764
2.219677
2.296567
2.392530
2.309680
2.580881
2.840757
3.296733
3.383756
3.348589
3.035665
2.866983
2.836585
2.933741
2.480745
2.011657
2.330542
1.685619
1.892447
1.752973
1.570582
1.842976
1.711845
1.726747
1.785755
1.731515
1.696944
1.594424
1.583695
1.594424
1.558661
##ZVALUE=275
0.337958
0.418425
0.315905
0.383854
0.421405
0.618696
0.382662
0.574589
0.576973
0.652671
0.412464
0.497699
0.784993
0.414848
0.570416
0.764728
0.789762
1.036525
1.092553
2.906919
12.482405
36.119819
104.950666
197.106004
370.414853
510.714650
675.961971
780.169964
829.998851
785.667896
699.167848
519.934893
373.356938
201.118588
118.052959
57.411790
41.382909
51.473975
68.815947
93.509555
114.522576
129.325986
135.580897
129.727721
113.933682
90.149641
70.509911
47.027469
31.599998
18.158555
11.455417
5.633831
3.751516
3.085732
2.855659
2.719760
2.760887
2.588630
2.325773
2.534986
2.121925
2.301931
2.161860
2.039671
2.146959
2.027750
2.123713
1.894832
2.234578
2.343655
2.674460
2.934933
3.071427
2.966523
3.069639
2.717972
2.636909
2.547503
2.315640
2.005696
2.304912
1.955628
1.779795
1.639724
1.716614
1.678467
1.333952
1.523495
1.937747
1.707673
1.563430
1.398921
1.599789
1.448989
1.675487
1.538992
##ZVALUE=280
0.352859
0.284910
0.276566
0.171661
0.476837
0.373721
0.350475
0.341535
0.380874
0.245571
0.312924
0.478625
0.287890
0.562668
0.457764
0.644922
0.695586
0.609756
0.685453
0.857711
1.014471
1.480579
7.287860
24.397969
79.992414
149.282813
286.512971
426.502824
621.148944
738.272667
834.157467
829.540491
760.825872
583.203435
438.296795
253.583789
152.089000
69.462657
40.400624
35.604835
47.000647
70.789456
89.751482
114.663839
126.071572
129.637718
125.990510
109.009743
91.227889
68.496466
48.620701
29.399991
19.605756
9.423494
5.887747
3.279448
2.566576
2.673864
2.204776
2.170801
2.316833
2.228618
2.231598
2.298951
2.410412
2.065897
1.953840
2.157688
2.324581
2.232790
2.370477
2.605915
2.414584
2.693534
2.469420
2.557635
2.589822
2.188683
2.186894
1.889467
1.692772
2.024770
1.618862
1.729727
1.617670
1.517534
1.632571
1.550913
1.368523
1.590848
1.170635
1.596808
1.514554
1.286864
1.205802
1.259446
##ZVALUE=285
0.218749
0.451803
0.213981
0.162721
0.261664
0.372529
0.206828
0.232458
0.430942
0.340939
0.463724
0.435710
0.348687
0.267625
0.658631
0.426769
0.368953
0.473857
0.427961
0.618696
0.667572
0.709891
1.236796
1.110435
3.256798
12.497902
43.806434
91.776848
202.376842
326.982737
469.279885
664.929748
782.463551
852.382779
816.079974
681.820512
541.071892
341.154933
215.698481
102.291703
53.968430
27.844906
29.516816
45.295954
64.096451
90.021491
107.146502
122.562647
126.577616
121.722817
112.759471
89.275837
71.243644
47.904849
32.168627
17.382503
10.602474
5.447865
3.324747
2.527833
2.144575
2.077818
2.160668
1.935959
1.991987
2.309680
2.094507
2.242923
1.919866
2.104640
2.331734
2.461672
2.324581
2.147555
2.492666
2.503991
2.384782
2.277493
1.982450
1.898408
1.922846
1.562834
1.672506
1.599789
1.609921
1.226664
1.165867
1.174808
1.303554
1.385808
1.295805
1.288652
1.310706
1.072884
1.218915
1.304746
##ZVALUE=290
0.329614
0.276566
0.253916
0.328422
0.267625
0.275970
0.292659
0.380874
0.440478
0.368953
0.440478
0.425577
0.457764
0.586510
0.514984
0.575781
0.387430
0.688434
0.482798
0.512600
0.826716
0.833869
0.700951
0.912547
1.027584
0.985861
1.452565
5.260706
24.797916
58.825612
139.969587
244.138837
385.381579
598.325729
735.937953
851.551890
852.772593
748.484731
623.711944
425.867438
285.964608
146.472454
75.986981
31.057596
21.113753
28.881431
41.237473
61.536431
80.244541
100.858808
115.116835
121.520758
120.112896
106.409788
91.093779
66.750646
47.952533
29.159784
19.117594
9.799600
6.174445
3.182888
2.455711
2.002716
1.895428
1.955628
1.980662
1.821518
2.227426
2.175570
2.211928
2.257824
2.416968
2.516508
2.308488
2.403855
2.224445
2.115965
1.764894
1.836419
1.692772
1.469851
1.553893
1.444817
1.378655
1.477599
1.620650
1.491904
1.317859
1.362562
1.334548
1.115799
1.331568
1.341701
1.307726
1.214743
##ZVALUE=295
0.217557
0.278950
0.067949
0.092983
0.088811
0.167489
0.240803
0.349879
0.203848
0.305772
0.280738
0.520945
0.275970
0.290871
0.407696
0.344515
0.302792
0.364780
0.552535
0.407696
0.534654
0.560880
0.774860
0.567436
0.658631
0.764728
0.945926
1.207590
1.132488
2.181530
11.888742
33.088923
99.319816
185.027719
353.014469
506.151915
696.939826
807.193518
857.520700
815.447569
675.370693
534.664989
332.337618
210.676789
97.082853
47.757626
20.264983
16.823411
25.480986
36.840439
58.122873
75.001717
97.187757
109.223723
117.291808
114.797950
100.798607
85.822940
65.311790
48.103929
28.983951
18.612742
9.910464
6.107688
3.328919
2.469420
2.108812
1.814961
1.625419
2.042651
1.891851
2.098680
1.994967
2.103448
2.012849
2.029538
1.806617
2.059937
1.705885
1.559854
1.491904
1.425743
1.303554
1.191497
1.428723
1.107454
1.268983
1.364946
1.266599
1.180768
1.204610
1.338720
1.100898
1.028776
1.198649
1.178980
##ZVALUE=300
0.171661
0.108480
0.117421
0.121593
0.199676
0.291467
0.270605
0.289679
0.296831
0.120997
0.299811
0.255704
0.289679
0.327826
0.211596
0.404716
0.416636
0.236630
0.325441
0.276566
0.370741
0.330806
0.400543
0.438690
0.519753
0.420809
0.765920
0.790954
0.985861
0.970960
0.897646
1.391768
5.095601
18.174648
64.170957
125.631690
263.056755
406.133533
607.153773
731.639862
843.807459
845.170021
744.699836
619.080663
418.425798
274.926424
139.662623
76.818466
28.854609
14.840961
14.341474
20.549893
34.762621
48.353672
70.362687
87.583661
103.616714
110.768676
108.221769
100.998878
82.875490
66.964626
45.043826
31.597614
18.347502
11.137724
5.541444
3.635883
2.398491
2.038479
1.998544
1.988411
2.100468
1.990795
1.929998
2.000928
1.802444
1.814961
1.616478
1.692772
1.493692
1.497865
1.491904
1.382828
1.282692
1.179576
1.185536
1.374483
1.163483
1.074672
1.203418
1.095533
1.179576
1.173615
1.249909
1.342893
##ZVALUE=305
0.156760
0.136495
0.245571
0.292659
0.151992
0.228882
0.099540
0.310540
0.126958
0.290871
0.191927
0.158548
0.398755
0.414848
0.230670
0.337958
0.277758
0.269413
0.248551
0.342727
0.330806
0.288486
0.496507
0.598431
0.408888
0.448823
0.484586
0.661612
0.741482
0.674725
0.877976
0.768900
1.069903
1.039505
2.588630
9.361506
40.652752
90.983510
206.160545
328.070521
526.103973
675.696731
818.540454
858.314633
795.167685
686.388612
498.875976
356.601477
194.718838
108.225942
41.385889
18.722415
10.258555
12.384653
20.822883
30.857921
49.515963
65.084696
84.317923
95.576644
103.782415
103.139877
93.672872
80.832839
61.038733
45.525432
29.193759
19.072890
9.268522
5.764961
3.294945
2.519488
2.001524
1.947880
2.072453
1.708865
1.712441
1.606941
1.464486
1.460910
1.285672
1.294613
1.298785
1.433492
1.362562
1.249909
1.300573
1.337528
1.168847
1.033545
1.035929
1.010895
1.055598
1.094937
1.093745
1.045465
##ZVALUE=310
0.158548
0.121593
0.166893
0.105500
0.061989
0.081658
0.097752
0.276566
0.150800
0.231862
0.169873
0.220537
0.232458
0.308752
0.183582
0.391603
0.181794
0.262856
0.365973
0.300407
0.400543
0.103712
0.239611
0.357628
0.209808
0.374913
0.579953
0.543594
0.520945
0.601411
0.567436
0.549555
0.600815
0.763535
0.846982
1.013875
1.223683
3.703833
21.421909
52.221417
133.448839
232.342482
551.513433
579.738617
743.799806
830.366611
834.851861
769.608021
605.372787
454.345942
265.874863
158.862472
68.861842
31.966567
11.369586
8.001924
11.612773
16.813874
28.195977
39.828420
58.654547
73.366761
89.599490
96.390843
97.150803
91.561675
76.080561
62.784553
41.830540
29.184818
16.735792
10.892749
5.654693
3.681779
2.458692
2.044439
1.718998
1.685619
1.326799
1.464486
1.508594
1.316667
1.178980
1.378655
1.215935
1.213551
1.367927
1.324415
1.125932
1.230836
1.078844
1.165867
1.125932
1.030564
1.229644
0.985861
##ZVALUE=315
0.168681
0.050664
0.138879
0.083447
0.115633
0.267625
0.242591
0.047684
0.116825
0.125766
0.186563
0.279546
0.315905
0.349879
0.306964
0.318885
0.116825
0.375509
0.389814
0.330806
0.367761
0.360608
0.216961
0.280738
0.228882
0.494719
0.310540
0.503659
0.477433
0.535846
0.409484
0.517964
0.589490
0.610948
0.639558
0.856519
0.880957
0.872612
0.981688
2.375841
8.492470
36.674738
85.391402
196.515918
321.084857
522.031784
659.102798
795.878768
840.997696
793.986917
690.873861
511.282682
367.789865
199.135542
108.504891
40.794611
16.530752
7.201433
7.237792
10.318756
15.037656
25.922656
37.548542
54.937601
68.338513
84.537864
92.130899
91.571808
85.993409
71.776509
58.245659
41.994452
29.134750
16.809702
10.390878
5.168915
3.374815
2.252460
1.686811
1.450777
1.437664
1.307726
1.455545
1.345873
1.254678
1.286864
1.016855
1.289845
1.068711
1.160502
1.274943
1.227856
0.923872
1.161695
1.054406
1.194477
##ZVALUE=320
0.174642
0.155568
0.187755
0.218749
0.114441
0.134706
0.075698
0.152588
0.055432
0.176430
0.227690
0.121593
0.168681
0.227690
0.150800
0.314713
0.208616
0.263453
0.185966
0.286698
0.363588
0.227690
0.334978
0.358820
0.326633
0.234842
0.254512
0.267625
0.380874
0.336766
0.487566
0.388622
0.542998
0.677705
0.562668
0.480413
0.608563
0.810623
0.840425
0.803471
0.874996
1.383424
3.934503
21.653771
54.140687
141.178966
239.449739
414.624810
554.315448
723.891854
806.486011
821.192861
755.794644
592.097640
442.197919
253.672600
145.441890
60.174465
27.302504
9.220839
6.118417
6.687641
8.786917
14.082789
21.525621
35.771728
48.146844
65.223575
76.503754
86.731911
87.344646
80.416799
69.558620
53.069592
39.994717
26.298761
17.449856
9.351969
5.550981
2.972484
2.102852
1.702905
1.497865
1.458526
1.304746
1.051426
1.092553
1.241565
1.030564
1.103878
0.962615
1.193881
1.142621
1.030564
0.994802
1.235604
##ZVALUE=325
0.227690
0.095963
0.313520
0.144839
0.129938
0.162721
0.257492
0.228882
0.050664
0.255704
0.207424
0.197887
0.233650
0.403523
0.120997
0.231862
0.172853
0.232458
0.138879
0.281930
0.215769
0.284910
0.314713
0.207424
0.220537
0.336766
0.356436
0.447631
0.285506
0.329614
0.343919
0.264645
0.264645
0.553727
0.719428
0.608563
0.599623
0.639558
0.577569
0.446439
0.663996
0.699759
0.895858
0.986457
2.438426
9.723902
39.911866
83.562732
188.850760
312.160850
503.970981
642.889738
774.259567
819.354653
769.300461
659.620762
463.956594
326.178670
175.959468
97.797513
36.281943
14.869571
6.235838
5.391836
6.022453
8.085966
13.251901
20.193458
35.023689
46.849847
63.769817
73.162913
80.527663
81.931949
73.975921
66.163540
49.653649
37.326813
23.075938
15.226603
8.166432
4.928708
3.024936
2.282858
1.370907
1.488924
1.210570
1.216531
1.118779
0.994802
1.023412
1.170635
0.987649
0.964999
0.969768
0.980496
##ZVALUE=330
0.056624
0.112653
0.124574
0.081658
0.272989
0.048876
0.183582
0.290871
0.104904
0.198483
0.231862
0.203848
0.070930
0.160933
0.233650
0.170469
0.203848
0.152588
0.168681
0.351667
0.266433
0.168681
0.142455
0.243783
0.201464
0.224710
0.259876
0.213981
0.485778
0.352859
0.319481
0.292659
0.377893
0.295639
0.527501
0.456572
0.429749
0.556707
0.605583
0.473857
0.576973
0.619888
0.763535
0.681877
0.895858
0.988841
1.278520
3.900528
21.188855
53.776503
138.511658
236.047506
411.533713
551.077724
710.285902
785.537958
777.046680
700.640678
538.938642
400.257707
228.399634
132.091641
54.400563
23.953915
7.340908
4.966855
4.903674
5.202889
7.979870
12.208819
21.158457
30.296445
44.752955
56.207776
68.542957
74.256659
75.228810
70.209503
58.655739
47.325492
33.133626
23.206472
14.379621
9.397864
5.099773
3.005862
1.950860
1.733899
1.283884
1.084805
1.066923
0.916719
1.021624
1.096725
1.123548
1.007915
##ZVALUE=335
0.241995
0.149608
0.127554
0.311732
0.162721
0.108480
0.226498
0.079870
0.356436
0.360608
0.212789
0.174642
0.271797
0.284910
-0.003576
0.184774
0.213981
0.049472
0.082850
0.152588
0.098944
0.086427
0.190735
0.275970
0.108480
0.296831
0.407696
0.116825
0.178814
0.159740
0.390410
0.313520
0.357628
0.407696
0.385642
0.438690
0.491738
0.450611
0.454783
0.494719
0.590682
0.403523
0.491738
0.794530
0.762939
0.751615
0.610948
0.904799
0.989437
2.410412
9.051561
37.584901
80.849528
186.514854
305.548906
493.652821
627.408624
750.177503
778.152943
716.254711
612.893701
429.504514
297.444463
156.275630
83.233714
28.527975
11.934638
5.337000
4.490614
4.514456
5.220771
7.243752
11.376739
19.416809
28.218627
42.638779
52.701831
63.588619
69.896579
70.021749
65.405965
53.962469
44.914484
32.562613
23.777485
14.708638
9.203553
5.093813
3.005862
2.023578
1.409650
1.273751
1.133680
1.052618
1.029968
1.009703
##ZVALUE=340
0.042915
0.050664
0.035763
0.188947
0.049472
0.071526
0.025630
-0.025630
0.048876
0.143647
-0.004768
0.036955
0.087619
0.043511
0.101924
-0.023842
0.116825
0.207424
0.085831
-0.051856
-0.011921
0.169873
0.145435
0.135899
0.186563
0.055432
0.140667
0.117421
0.183582
0.380874
0.004768
0.126958
0.176430
0.126958
0.061989
0.244975
0.180602
0.337958
0.235438
0.308752
0.266433
0.310540
0.338554
0.404716
0.466704
0.410676
0.585914
0.707507
0.666976
0.826716
0.808835
1.383424
4.259944
22.330880
56.587458
142.645836
244.355798
408.522487
543.129444
687.826872
743.483901
728.965998
648.319721
488.299727
350.672007
188.125968
104.523897
42.184591
16.845465
5.906820
4.460812
3.955960
3.966689
4.929900
6.717443
11.472702
17.387867
28.060675
37.694573
50.514936
59.213638
64.987540
65.187812
61.033964
54.527521
42.516589
33.114552
22.076964
14.774799
8.875728
5.378723
2.652407
2.017617
1.101494
1.246929
1.037717
##ZVALUE=345
0.154972
0.179410
0.096560
0.219941
0.189543
0.205636
0.241995
0.253916
0.127554
0.171661
0.251532
0.101924
0.206828
0.059605
0.146627
0.249743
0.051856
0.182986
0.169873
0.208616
0.118613
0.047684
0.300407
0.284910
0.120997
0.282526
0.142455
0.243783
0.248551
0.293851
0.196695
0.403523
0.247955
0.238419
0.350475
0.338554
0.331998
0.129938
0.356436
0.352859
0.187755
0.426769
0.491738
0.359416
0.470877
0.315905
0.529885
0.424981
0.454783
0.575781
0.796914
0.521541
0.873804
0.888705
2.127886
12.371540
35.534501
97.098947
177.389979
327.422619
457.239747
618.727803
702.381730
730.198026
682.723522
546.847582
412.724018
240.873694
140.655637
58.869720
26.281476
8.409619
4.826784
4.296899
3.829598
3.759861
4.205704
6.248951
9.385943
15.902519
23.858547
35.813451
44.610500
54.507852
58.548450
60.715675
57.499409
50.980449
43.177605
31.903982
23.435950
14.308691
9.683967
5.627871
3.278852
2.090931
##ZVALUE=350
0.031590
-0.004768
0.003576
0.080466
0.085831
0.118613
0.103712
0.112653
0.263453
0.141859
0.076890
0.131726
0.149608
0.199676
0.162721
0.127554
0.097752
0.090599
0.174642
0.132918
0.212789
0.158548
0.292659
0.053644
0.243783
0.144839
0.096560
0.388622
0.310540
0.171661
0.183582
0.117421
0.229478
0.196695
0.253916
0.289679
0.289679
0.206828
0.196695
0.295639
0.234842
0.269413
0.351667
0.429749
0.320673
0.345707
0.515580
0.495911
0.436902
0.468493
0.452995
0.519753
0.682473
0.639558
0.753999
0.812411
1.256466
6.087422
19.647479
63.436627
123.885870
253.500938
373.665690
539.546013
647.537708
715.031624
694.584846
588.035583
463.259816
282.150507
175.273418
82.909465
37.833452
11.025667
5.307794
4.030466
3.696680
3.474951
3.261566
3.902912
5.566478
9.320974
13.745427
21.205544
28.531551
39.352775
47.058463
53.328872
55.316687
54.029822
47.925711
38.827658
31.627417
21.573901
15.678406
9.287000
##ZVALUE=355
0.110865
0.085831
0.110865
0.156760
0.115633
0.052452
0.136495
0.173450
0.061989
0.116825
0.080466
0.120997
0.153780
0.024438
0.181794
0.025630
0.149608
0.147820
-0.028610
0.185966
0.100732
0.055432
0.195503
0.176430
0.181794
0.203848
0.203848
0.142455
0.172853
0.209808
0.269413
0.168681
0.279546
0.356436
0.221729
0.189543
0.304580
0.169873
0.138879
0.159740
0.161529
0.235438
0.335574
0.391603
0.331998
0.396967
0.284910
0.264645
0.421405
0.446439
0.533462
0.545979
0.424981
0.637770
0.623465
0.567436
0.618696
0.720620
0.914931
2.924800
10.162592
40.930510
85.904598
185.502768
299.949646
470.446944
584.949851
682.775974
697.751641
612.387657
505.573750
346.381664
221.524835
100.078583
48.626661
15.110970
6.310940
4.136562
3.379583
3.084540
2.791882
3.082752
3.346801
4.750490
6.779432
11.903644
17.355680
25.950670
33.578873
41.777492
47.750473
50.084591
49.191713
43.355823
37.324429
28.543472
##ZVALUE=360
0.075698
0.213981
0.184774
0.144839
0.231862
0.231862
0.236630
0.138879
0.055432
0.182986
0.176430
0.036955
0.039935
0.195503
0.177622
0.204444
0.221729
0.148416
0.038743
0.132918
0.065565
0.203848
0.159740
0.177622
0.082850
0.164509
0.333786
0.314713
0.187755
0.319481
0.206828
0.271797
0.221729
0.115633
0.242591
0.214577
0.200868
0.287890
0.298619
0.202656
0.283718
0.388622
0.205636
0.268817
0.357628
0.330806
0.307560
0.482798
0.547767
0.540614
0.357628
0.425577
0.490546
0.395775
0.417829
0.582933
0.496507
0.685453
0.840425
0.654459
0.883937
1.486540
4.323721
21.183491
53.196549
134.261847
227.119923
380.435586
509.099960
642.688870
683.639646
648.858547
561.961532
393.548012
267.596841
133.368969
70.152879
25.429726
10.272861
4.299879
3.649592
3.024936
3.021955
2.788901
2.693534
2.947450
3.528595
5.930662
8.862615
14.650822
20.610690
29.293895
36.158562
42.405725
44.896603
45.280457
##ZVALUE=365
0.170469
0.141859
0.333786
0.069737
0.109673
0.071526
0.128746
0.080466
0.170469
0.091791
0.162721
0.171661
0.180602
0.199676
0.157952
0.070930
0.130534
0.178814
0.188947
-0.023842
0.297427
0.194907
0.245571
0.240803
0.197887
0.044703
0.253916
0.265837
0.128746
0.148416
0.206828
0.326633
0.123978
0.240803
0.265837
0.192523
0.275970
0.434518
0.243783
0.194907
0.365973
0.201464
0.225902
0.459552
0.233650
0.311732
0.479817
0.415444
0.473857
0.290871
0.352859
0.481606
0.481606
0.525713
0.445843
0.528693
0.413656
0.492930
0.629425
0.702739
0.660419
0.696778
0.830889
1.029968
2.171993
11.593699
31.977892
87.154508
164.210796
312.770009
433.136821
568.985939
643.697977
652.508736
588.160753
442.162752
319.700837
180.474520
99.454522
36.737919
14.756918
4.943609
3.520846
3.273487
3.074408
2.691746
2.583861
2.183914
2.532601
3.090501
4.387498
7.633567
11.506677
18.203855
23.995638
31.906962
##ZVALUE=370
0.177622
0.258684
0.049472
0.118613
-0.013709
0.132918
0.061989
0.181794
0.038743
0.192523
0.259876
0.281930
0.043511
0.274777
0.128746
0.111461
0.116825
0.072718
0.274777
0.167489
0.182986
0.079870
0.269413
0.227690
0.250936
0.260472
0.198483
0.152588
0.252724
0.166893
0.202656
0.214577
0.200868
0.095963
0.205636
0.426769
0.237823
0.417829
0.376701
0.316501
0.426769
0.149608
0.205636
0.392795
0.173450
0.356436
0.278950
0.251532
0.205636
0.201464
0.290871
0.375509
0.350475
0.329614
0.350475
0.512600
0.424981
0.487566
0.365973
0.559688
0.525713
0.640750
0.653863
0.791550
0.813603
1.039505
1.296997
6.161928
20.160675
64.653754
124.655962
246.271491
366.504788
527.850986
616.119504
653.000474
615.006685
497.449636
379.732847
224.840641
132.067800
53.132772
23.682714
7.072687
3.800988
3.276467
2.894998
2.598763
2.504587
2.301931
2.123713
2.259612
2.581477
3.966689
5.907416
10.105968
##ZVALUE=375
0.055432
0.090599
0.259876
0.191927
0.221729
0.066757
0.082850
0.185966
0.147820
0.228882
0.063777
0.110865
0.112653
0.153780
0.014901
0.151992
0.273585
0.169873
0.249743
0.107884
0.066757
0.015497
0.215769
0.029802
0.297427
0.178814
0.138879
0.148416
0.308752
0.240803
0.139475
0.134706
0.072718
0.208616
0.122786
0.205636
0.468493
0.245571
0.202656
0.134706
0.217557
0.312924
0.182986
0.081658
0.146627
0.287890
0.174642
0.472665
0.362992
0.322461
0.216961
0.391603
0.252724
0.443459
0.388622
0.367761
0.307560
0.355840
0.484586
0.408888
0.447631
0.414848
0.495911
0.414848
0.601411
0.455976
0.810623
0.732541
0.970960
2.440810
13.518929
35.448670
94.152689
169.879794
310.894847
428.412557
564.993620
632.525682
628.767014
557.603836
410.373807
295.491815
170.356631
97.063780
38.882494
16.419888
4.910827
3.176928
2.820492
2.526641
2.422929
2.232790
2.076626
2.096891
1.821518
2.235770
##ZVALUE=380
0.105500
0.124574
0.122786
0.204444
0.203848
0.108480
-0.050664
0.196695
0.093579
0.277758
0.165701
0.047684
0.224710
0.192523
0.139475
0.310540
0.170469
0.133514
0.074506
-0.003576
0.106692
0.140667
0.109673
0.146627
0.139475
0.018477
0.167489
0.233650
0.178814
0.205636
0.198483
0.115633
0.316501
0.130534
0.149608
0.223517
0.226498
0.202656
0.190735
0.189543
0.160933
0.098944
0.246763
0.066757
0.096560
0.185966
0.109673
0.344515
0.297427
0.244975
0.266433
0.323653
0.443459
0.221729
0.307560
0.128746
0.116825
0.216961
0.367761
0.470877
0.404716
0.476837
0.471473
0.353456
0.416636
0.604987
0.380874
0.640750
0.695586
0.908971
0.919700
1.623631
5.344748
26.110411
62.405467
149.695873
246.546865
395.566821
510.831475
617.097616
638.073683
569.401979
480.106473
341.816545
235.739946
119.017959
61.696768
21.653771
8.718967
3.514886
2.823472
2.580881
2.283454
2.130866
2.140999
2.264977
##ZVALUE=385
0.111461
0.112653
0.099540
0.112653
-0.011921
0.212789
0.114441
0.122786
0.145435
0.011921
0.068545
0.057817
0.141859
0.149608
0.077486
0.202656
0.111461
0.043511
0.246763
0.173450
0.207424
0.007749
0.142455
0.095963
0.135899
0.226498
0.132918
0.098944
0.100732
0.219941
0.127554
0.173450
0.140667
0.030994
0.175834
0.028610
0.050664
0.188947
0.253916
0.308752
0.107884
0.320673
0.053644
0.231862
0.245571
0.210404
0.138879
0.161529
0.223517
0.282526
0.408888
0.283718
0.330806
0.213981
0.220537
0.216961
0.105500
0.261664
0.270605
0.532866
0.165701
0.225902
0.149608
0.255704
0.291467
0.358820
0.413656
0.491738
0.578761
0.783801
0.759959
0.788569
0.994802
0.938773
2.572536
14.296770
38.291812
99.662542
180.075765
327.048898
447.204709
576.573610
621.810555
608.915687
547.606945
412.548780
298.485756
167.400837
95.993876
39.618611
16.127825
4.575849
2.784729
2.551675
2.377629
2.230406
##ZVALUE=390
0.133514
0.052452
0.137687
0.011921
0.029802
0.285506
0.161529
0.015497
0.093579
0.223517
0.166893
0.168681
0.153780
0.135899
0.116825
0.069737
0.125766
0.069737
0.111461
-0.045896
-0.014901
0.111461
0.020862
0.112653
0.076890
0.129938
0.119805
0.282526
0.100732
0.144839
0.137687
0.093579
0.176430
0.195503
0.059605
0.174642
0.192523
0.294447
0.228882
0.159740
0.332594
0.198483
0.248551
0.255704
0.291467
0.126958
0.243783
0.191927
0.332594
0.289679
0.227690
0.192523
0.209808
0.325441
0.168681
0.121593
0.134706
0.310540
0.381470
0.424981
0.240803
0.277758
0.291467
0.297427
0.252724
0.472665
0.385642
0.408888
0.558496
0.539422
0.619888
0.727773
0.661612
0.834465
0.578761
0.961423
1.290441
7.209778
23.358464
72.083473
140.162706
272.971988
381.598473
515.155792
590.053797
632.604957
596.373677
486.440659
378.001928
234.396458
138.864517
57.855844
26.075840
7.187724
3.374815
2.537966
##ZVALUE=395
0.085831
0.115633
0.148416
0.156760
0.221729
0.155568
0.150800
0.196695
-0.007749
0.195503
0.219941
0.214577
0.157952
0.020862
0.014901
0.166893
0.118613
0.079870
-0.108480
0.114441
-0.030994
0.162721
0.086427
0.105500
0.092983
0.181794
0.040531
0.084639
0.075698
0.117421
0.094771
0.103712
0.100732
0.263453
0.170469
0.125766
0.163913
0.224710
0.265837
0.173450
0.205636
0.226498
0.158548
0.117421
0.131726
0.239611
0.212789
0.145435
0.205636
0.285506
0.130534
0.139475
0.171661
0.242591
0.240803
0.290871
0.261664
0.337958
0.121593
0.201464
0.283718
0.247955
0.196695
0.302792
0.357628
0.420809
0.439882
0.482798
0.373721
0.481606
0.529885
0.618696
0.770688
0.453591
0.552535
0.510812
0.684857
0.832677
0.933409
3.701448
13.796687
50.672889
102.652907
208.764672
312.833786
465.015769
564.406514
642.685890
637.540817
557.251573
447.893739
288.393497
184.703469
89.252591
42.831898
13.863444
##ZVALUE=400
0.215769
0.231862
0.088811
0.120997
0.010729
0.099540
0.074506
0.036955
0.119805
-0.070930
0.070930
-0.057817
0.014901
-0.069737
-0.001788
0.113845
0.209808
0.187755
0.194907
0.037551
-0.066757
0.088811
-0.000596
0.006557
0.043511
0.127554
0.020862
0.011921
0.023842
0.107884
-0.038743
0.115633
0.158548
0.156760
0.112653
0.177622
0.165701
0.124574
0.120997
0.148416
0.023842
-0.017881
0.165701
0.287890
0.107884
0.276566
0.222921
0.166893
0.101924
0.212789
0.225902
0.058413
0.167489
0.201464
0.205636
0.140667
0.247955
0.207424
0.043511
0.170469
0.251532
0.162721
0.167489
0.323653
0.196695
0.257492
0.282526
0.256896
0.351667
0.444651
0.444651
0.539422
0.495911
0.542998
0.407696
0.438690
0.387430
0.462532
0.372529
0.605583
0.881553
1.573563
8.741617
25.268793
72.829723
135.475993
261.034966
370.285511
514.071584
590.431690
622.275472
583.405495
464.059711
351.380706
207.402706
125.943422
##END
