##TITLE=DDW2
##FORMAT=SPECTACLE-ASCII V-1.2
##DATA TYPE=ULTRAVIOLET SPECTRUM
##SECOND TYPE=ULTRAVIOLET SPECTRUM
##DATE=02/01/18
##TIME=14:30:36
##SPECTROMETER/DATA SYSTEM=SPECTACLE
##XUNITS=NM EM
##YUNITS=ENERGY
##YFACTOR=1
##FIRSTX=220
##LASTX=410
##NPOINTS=96
##3DDATA=Equidistant
##ZUNITS=NM EX
##FIRSTZ=210
##LASTZ=400
##ZPOINTS=39
##XYDATA=(Y..Y)
##ZVALUE=210
13.855696
12.929440
11.319518
11.130571
9.687543
10.399818
8.867979
7.328987
5.899668
4.212856
2.683997
1.895428
1.632571
1.303554
1.085997
1.277924
1.790524
1.501441
1.613498
1.417994
2.024770
1.916885
2.169609
2.089739
2.516508
1.868606
2.115965
2.508759
2.788901
2.354980
2.310872
2.980828
2.460480
3.139973
2.748966
2.916455
2.536774
3.616810
2.901554
3.109574
3.673434
3.255606
3.864765
3.425479
2.808571
3.529787
3.287792
4.228950
2.787709
3.727674
3.464818
3.702641
3.749728
3.289580
4.043579
3.420711
3.400445
3.356934
3.923774
3.576875
3.189445
3.606677
3.558993
3.760457
3.337860
4.149675
3.600717
4.496574
4.759431
5.015731
7.065535
7.364750
8.077621
9.446740
10.046959
11.012554
10.240674
9.679794
10.384917
8.509755
8.687973
6.899834
5.851984
5.692840
4.745722
4.308820
3.564954
3.356934
4.390478
5.234480
7.972717
11.390448
16.303658
17.836690
22.437572
28.707981
##ZVALUE=215
35.280585
34.684539
31.219721
23.508668
18.915534
17.250776
16.302466
16.345978
13.995767
14.003515
11.188984
7.806420
5.039573
4.339814
2.765656
2.051592
1.632571
2.123713
2.303720
1.788735
2.371669
2.050996
2.104640
2.451539
2.477765
2.316833
2.802610
3.017783
2.916455
3.075600
3.243685
2.367496
2.530813
2.722740
2.922416
3.592968
3.244877
3.569722
3.166795
3.537536
3.598928
3.622770
3.233552
4.444718
3.527999
3.182888
3.621578
3.829598
3.386736
3.584623
3.446937
3.353953
3.972650
3.722906
3.763437
3.859997
3.594756
3.885627
3.645420
3.756881
3.667474
3.097653
3.569722
4.102588
3.563762
3.801584
4.312992
4.974604
4.951954
5.075932
6.340742
6.749630
7.997751
8.624792
8.409619
9.787679
9.386539
8.970499
8.948445
7.730722
7.021427
6.709695
5.364418
4.789829
4.562736
4.059672
4.034638
4.369617
3.230572
3.521442
3.501773
3.481507
3.498793
4.764795
6.667972
7.815957
##ZVALUE=220
76.054931
70.340633
73.240995
67.829490
58.567524
48.176646
33.215880
29.663444
25.686622
24.292469
25.043488
23.040771
20.172000
17.220974
13.659000
9.041429
7.284880
4.248619
2.929568
2.514720
2.256632
1.995564
2.489686
3.571510
2.957582
2.495646
2.962947
3.123879
3.202558
2.967715
3.367662
3.089905
2.947450
3.728867
3.673434
3.672838
3.374815
3.230572
3.958941
4.170537
3.497601
2.976656
3.425479
3.921986
4.311800
3.983974
4.390478
4.152656
3.648996
4.209876
4.315972
3.668666
4.312992
3.554821
3.599524
4.211664
3.889799
3.882647
3.766418
4.367828
4.057884
4.659891
4.563928
4.523993
4.231930
5.099773
5.095601
5.041957
4.749894
5.245805
6.233454
6.565452
7.353425
9.037852
8.589625
8.916855
8.704662
8.646846
7.748604
8.751750
8.305907
5.581975
6.681681
5.239844
5.375743
4.382730
4.067421
3.936887
3.374815
3.893971
4.047751
4.263520
3.497601
3.070831
2.962947
3.268719
##ZVALUE=225
95.765591
99.875927
119.602680
130.478740
129.957795
116.207004
100.867748
77.635646
59.153438
49.919486
40.856600
38.795471
40.433407
40.431619
37.041903
30.092597
26.273727
19.885898
14.385581
8.673668
5.784631
3.644824
2.962947
3.415942
3.427863
3.241897
3.227592
3.212690
3.611445
3.245473
3.121495
3.839731
3.078580
3.643632
4.433990
3.783703
3.286600
3.469586
3.605485
4.700422
3.609657
3.943443
4.428625
4.011989
3.849864
4.319549
4.428625
3.678799
4.287958
4.006624
4.536510
4.487634
4.661679
4.286766
4.938841
4.405975
4.914999
4.891753
4.140735
4.932880
4.877448
5.002618
4.136562
5.840659
4.721880
4.764795
6.249547
5.217791
5.811453
5.967617
6.284714
8.073449
7.455945
8.635521
9.080768
8.800626
8.310676
8.646846
9.353757
7.290840
6.164908
6.064773
5.413890
4.892945
4.988909
4.420877
3.585815
4.575849
3.782511
4.504919
3.873706
3.745556
4.602671
3.647804
3.328919
3.653765
##ZVALUE=230
60.142875
64.547658
97.877979
147.807598
182.952881
209.791660
222.578645
209.992528
184.915662
148.697495
103.829503
79.579949
61.325431
60.545802
57.898760
60.301423
62.001944
59.584975
50.650835
39.102435
29.189587
18.120408
11.718869
6.444454
5.451441
3.705621
3.194809
4.191995
4.140735
4.383922
3.425479
4.199743
4.487634
5.019903
3.962517
4.292727
4.350543
4.046559
4.942417
4.940629
4.447699
4.869699
4.117489
4.795790
5.334616
4.464984
4.677773
4.482865
5.178452
5.445480
5.039573
5.347729
4.919767
5.764961
5.063415
5.246997
4.860759
5.905628
5.389452
5.627871
6.028414
5.329847
5.213618
5.046725
5.484819
5.761981
5.795956
6.532669
6.800890
7.013679
7.312894
7.725954
9.152889
8.090734
9.375811
10.098815
9.719729
9.337664
9.637475
8.205771
6.937981
8.185506
7.200837
6.098747
5.551577
4.921556
4.781485
5.169511
4.880428
4.779696
4.330873
3.786683
4.901886
3.992915
4.003644
4.083514
##ZVALUE=235
17.346740
19.000769
46.465993
81.687570
136.791468
220.217705
280.944705
338.948965
368.300676
349.810719
315.571427
237.049460
181.331635
122.800469
97.115636
83.650947
83.650947
93.177557
92.598796
91.651678
83.816648
68.926811
53.909421
38.973689
22.913814
16.568899
11.258721
7.308722
6.276965
5.583763
5.520582
5.582571
5.662441
5.593896
5.737543
5.827546
5.908608
5.490780
5.474687
5.020499
5.252957
5.101562
5.134940
5.717874
5.727410
5.506873
5.752444
4.912615
4.954934
4.810691
5.208850
4.533529
5.273819
5.445480
5.215406
5.231500
5.452633
5.367994
6.054640
6.058812
5.639791
5.903840
5.360842
5.620718
5.527735
5.575418
5.901456
6.448627
6.645918
8.287430
8.291602
8.507967
9.009838
10.606647
10.138750
10.931492
10.492802
10.337830
9.026527
8.994937
7.835627
7.430911
7.736683
7.608533
6.315708
5.278587
5.595684
5.456805
5.373955
4.787445
5.161762
5.511642
4.766583
5.147457
4.957914
5.071759
##ZVALUE=240
1.205802
1.245737
5.960464
17.243624
47.714710
89.697838
173.413754
251.328945
360.554457
432.367921
475.690961
465.340018
424.827933
331.864953
260.959864
171.738863
121.338964
98.352432
90.600848
99.637508
109.879971
113.297701
106.192827
100.588799
76.808929
62.898993
42.167902
31.034946
19.538999
12.182593
10.658503
8.164644
7.250905
7.405877
7.240772
7.177591
6.706715
6.526709
6.669760
5.304813
5.592704
5.067587
5.214810
4.953742
5.930662
5.313754
5.041957
5.170703
5.448461
4.607439
4.418492
4.283786
5.053878
5.087852
5.079508
5.026460
4.277825
4.550815
4.716516
4.533529
4.334450
4.674792
4.591942
4.993677
4.818439
5.763769
4.976988
6.300807
6.784797
5.835891
7.588863
8.251667
8.671880
9.490848
8.954406
9.009838
10.406971
8.544922
9.236932
8.257627
7.545948
7.316470
7.344484
7.528663
5.454421
5.219579
6.114841
4.436970
5.385876
5.441904
4.675984
5.055666
4.975796
4.927516
4.796982
5.127788
##ZVALUE=245
0.566840
0.632405
0.908971
1.107454
2.945662
9.903908
38.122535
77.615976
165.053606
248.471498
372.043848
456.474423
510.825515
536.305904
509.127975
422.194004
349.356532
240.123868
169.702768
114.027858
95.360875
93.755722
109.016895
120.964646
124.393702
121.519566
107.555985
93.289614
68.587661
54.198503
37.358999
25.085807
16.471744
12.708902
9.987950
8.629560
7.688999
7.351637
7.699728
6.897449
6.320477
5.998611
5.618930
5.721450
5.143881
4.556775
4.023910
4.019737
4.965663
3.923774
4.039407
4.967451
4.124641
4.110932
3.995895
4.319549
4.442930
3.959537
4.187822
4.084706
4.120469
4.481673
4.156828
4.091859
4.393458
4.096627
5.147457
4.211664
5.090833
5.684495
6.163716
7.972717
6.901622
7.890463
7.817745
7.612705
7.438660
6.984472
6.537437
6.556511
5.905628
6.073713
5.769730
6.144643
5.434752
6.044507
4.888773
4.929900
4.644990
4.661679
4.305840
4.204512
4.353523
3.648996
4.376769
4.604459
##ZVALUE=250
0.614524
0.699759
0.721812
0.884533
0.805855
0.798702
1.618862
5.467534
24.833679
57.860613
138.859749
223.245621
310.825706
446.847677
534.439683
596.866608
593.633652
530.255437
449.012518
311.300755
216.924548
148.432851
98.528862
91.578960
102.224946
116.707683
128.737688
135.400891
127.920508
117.394924
96.007586
75.626969
57.087541
36.283731
24.057627
15.274882
10.527968
7.855892
7.640719
7.284880
6.306767
5.706549
5.350709
5.369782
4.833937
5.029440
4.912615
4.264712
4.229546
4.039407
3.791451
3.451705
4.133582
3.926754
3.650784
3.788471
3.628731
3.784895
3.636479
3.280640
3.850460
3.056526
3.639460
3.287792
3.430843
3.323555
3.904700
3.779531
4.125834
5.042553
4.831553
5.290508
5.869865
6.590486
6.654859
6.282926
6.362796
5.912781
6.370544
5.569458
5.254745
4.308820
4.272461
4.321933
4.031658
4.110932
3.707409
3.655553
3.743768
3.651977
3.552437
3.771782
3.430843
3.199577
3.122687
3.109574
##ZVALUE=255
0.715852
0.824928
0.678897
0.681877
0.699759
1.017451
0.916719
0.889897
1.158714
2.509952
15.852451
41.557550
82.858801
177.716613
276.189446
421.699882
521.218777
622.805953
659.896731
619.765520
540.552735
435.230732
282.471776
183.063745
109.009743
83.268881
84.583759
97.211599
118.464828
131.537914
135.402679
131.379962
120.295882
97.163916
74.511766
50.308704
36.137700
19.758940
12.634993
8.042455
5.968809
5.329847
5.230904
4.125834
4.238486
3.943443
3.812909
3.730655
3.755689
3.544688
3.801584
3.510714
3.404617
3.594756
3.609657
3.458858
3.540516
3.460646
3.099442
3.138781
3.385544
3.349781
3.205538
3.216863
3.288984
3.335476
3.108978
3.727674
3.852844
4.116893
4.178882
5.228519
4.758835
5.059838
5.572438
5.476475
5.055666
5.065799
4.992485
4.209876
3.783703
4.010797
3.462434
3.455877
3.251433
3.077984
3.154874
3.491640
2.952814
3.327727
2.815723
2.701879
2.992749
3.067851
2.794862
2.711415
##ZVALUE=260
0.629425
0.639558
0.776649
0.686646
0.711679
0.504851
0.698566
0.762939
0.919700
0.967979
0.871420
1.577735
5.227923
24.016500
55.367947
132.929683
219.776630
366.623998
483.746529
639.676452
705.900788
723.063946
640.859604
529.838800
357.234478
250.928402
144.942999
95.341802
71.292520
76.077580
92.078447
114.989877
130.298734
137.881637
134.870410
118.447542
99.481940
71.787834
53.926706
31.997561
20.023584
10.469556
6.917715
4.257560
4.117489
3.684759
3.832579
3.833771
3.626943
3.705621
3.245473
3.360510
3.311634
3.232956
3.385544
2.904534
3.187656
3.024936
3.191829
3.201962
2.645850
3.014803
2.622604
2.891421
3.044605
3.024936
2.877712
3.195405
3.504753
3.215671
3.292561
4.142523
4.138947
3.748536
4.443526
4.136562
3.940463
4.054904
3.778934
3.468990
3.253818
3.011823
2.586842
2.616644
2.716780
2.538562
2.696514
2.608895
2.720952
2.733469
2.815723
2.486706
2.426505
2.527833
2.356768
2.420545
##ZVALUE=265
0.580549
0.463724
0.519753
0.529885
0.683665
0.520945
0.545979
0.702739
0.743866
0.720620
0.903606
0.980496
0.925660
1.131892
2.649426
14.797449
36.301613
97.126961
171.873569
332.711935
467.182994
597.347617
737.154484
772.478580
715.606809
617.244840
467.876792
331.600904
184.815526
119.448900
70.378780
62.049627
72.148442
97.855926
118.941665
133.767724
140.329599
131.208897
118.809938
93.650818
73.368549
47.999620
31.571984
17.344952
10.191798
5.846620
4.794598
3.689528
3.236532
3.401637
3.070831
2.772808
3.143549
3.153682
2.839565
3.133416
2.736449
2.972484
2.503991
2.942681
2.612472
2.543926
2.692938
2.614856
2.421737
2.440810
3.013611
2.899766
2.741814
2.955794
2.983809
3.428459
3.961921
3.793836
3.523827
3.473759
3.706813
3.167987
3.368855
2.789497
2.900958
2.563000
2.544522
2.571940
2.321601
2.123713
2.330542
2.041459
2.113581
1.917481
1.860857
2.039671
1.795888
1.858473
1.868606
1.914501
##ZVALUE=270
0.487566
0.569820
0.567436
0.483990
0.436902
0.354648
0.454783
0.495911
0.432730
0.604987
0.854731
0.639558
0.633597
0.926852
0.879765
0.918508
1.483560
6.424785
20.392537
64.867735
133.053660
237.163901
422.445536
575.691462
735.743642
800.791979
794.005990
724.876523
564.230680
431.752801
308.968425
166.285634
97.650886
54.719448
54.756999
73.987842
93.583465
118.645430
132.347941
138.107538
134.776831
114.227533
97.352862
69.409609
49.995780
29.102564
19.131899
9.812713
6.238818
3.585815
3.629923
2.855659
3.105998
3.375411
2.919436
3.014803
3.007650
2.879500
2.816916
2.944469
2.980828
2.409816
2.516508
2.329946
2.484918
2.402663
2.240539
2.808571
2.843738
2.719760
3.176928
3.105998
3.154874
3.371835
3.324747
3.321767
3.091693
2.941489
2.998710
2.509952
2.531409
2.501607
2.157688
2.267957
1.982450
1.896620
2.007484
1.860857
2.108812
1.988411
1.852512
2.022982
1.974702
1.882911
1.585484
1.828671
##ZVALUE=275
0.379682
0.371933
0.326633
0.409484
0.478625
0.456572
0.612736
0.524521
0.530481
0.571609
0.638962
0.625849
0.701547
0.696778
0.653863
0.730753
0.829697
0.903606
1.123548
3.046989
12.071729
33.399463
102.452636
192.182660
368.571877
510.372519
681.273937
789.460540
840.652585
803.113580
679.754615
540.132523
385.295749
210.845470
122.632980
59.196949
43.271780
51.192641
68.361759
94.602704
112.238526
129.413605
135.668516
129.185915
116.145611
91.814995
73.674917
49.475431
33.752918
18.089414
11.664629
6.163716
4.150867
3.138781
3.142953
3.110766
2.721548
2.766848
2.918839
2.752542
2.344847
3.086925
2.444983
2.598763
2.427697
2.572536
2.228618
2.500415
2.336502
2.819896
3.072619
2.971888
2.916455
2.927780
3.219843
3.069639
3.075600
2.817512
2.717972
2.579689
2.296567
2.226830
2.227426
2.069473
2.122521
1.695752
1.829863
1.979470
1.770854
1.819730
1.634955
1.978874
1.602769
1.671910
1.858473
1.494884
##ZVALUE=280
0.364780
0.351667
0.423789
0.507832
0.248551
0.380874
0.461936
0.492930
0.386834
0.440478
0.545979
0.517964
0.583529
0.757575
0.717640
0.804663
0.707507
0.573993
0.705719
0.917912
1.059771
4.551411
6.529689
68.361759
80.776811
144.882798
288.722515
427.668691
629.253983
752.454996
832.856894
850.345492
776.082873
603.387952
451.917648
262.565017
160.101652
70.778728
42.198896
35.785437
46.550632
70.146918
88.899732
113.809705
127.348900
130.676627
125.456452
110.237598
95.267892
69.600940
50.847530
31.225681
19.642711
10.105968
6.069541
4.008412
2.947450
2.958775
2.881885
2.711415
2.604723
2.431870
2.411604
2.613664
2.557635
2.553463
2.184510
2.433658
2.288818
2.368689
2.433658
2.715588
2.795458
2.991557
3.221631
2.756715
2.662539
2.509952
2.561808
2.483726
2.323985
2.047420
2.036691
1.888871
2.067685
1.830459
1.644492
1.742840
1.793504
1.789927
1.703501
1.795888
1.664758
1.802444
1.538992
1.774430
##ZVALUE=285
0.589490
0.671744
0.570416
0.636578
0.612736
0.520945
0.628829
0.688434
0.661612
0.581741
0.538826
0.782609
0.760555
0.849962
0.743866
1.065731
0.806451
0.926852
0.759959
0.991821
1.030564
1.142621
1.264811
1.431704
3.666878
12.557507
43.619871
95.073581
211.259723
332.792997
476.839542
674.465895
799.092650
870.081782
842.612982
698.908567
561.519861
358.744860
229.046941
109.926462
58.216453
29.792786
29.852986
46.100616
64.236522
87.958574
105.964541
120.905638
127.839446
123.507977
114.730597
92.610717
73.426962
49.799681
33.805966
19.070506
11.805892
6.355643
4.248619
3.057718
2.787709
2.690554
2.659559
2.540946
2.532601
2.819896
2.523661
2.638698
2.807975
2.911687
2.860427
2.873540
2.835989
3.058910
3.117919
2.914667
2.915859
2.886653
2.680421
2.322793
2.400875
2.033710
2.219677
2.175570
2.026558
1.970530
1.934767
2.062917
1.910925
1.819730
2.006888
1.944900
1.865625
1.882911
1.732707
1.772642
##ZVALUE=290
0.451803
0.413656
0.338554
0.380874
0.467896
0.392795
0.326633
0.399947
0.564456
0.527501
0.407696
0.425577
0.523925
0.680685
0.471473
0.562668
0.574589
0.546575
0.594854
0.537634
0.842810
0.767708
0.813603
0.900626
1.112819
1.253486
1.670718
4.830956
23.197532
57.953000
117.303729
251.483917
395.566821
613.783598
752.316713
867.978930
880.785584
778.672695
648.862720
445.482731
301.179886
152.852535
80.398917
32.873750
21.363497
28.180480
40.559769
60.519576
78.168511
102.394819
116.086602
123.116970
121.413469
108.587742
92.749000
67.498684
49.674511
30.515790
20.140409
10.530949
6.377697
3.897548
2.904534
2.530813
2.561808
2.161860
2.236962
2.125502
2.465844
2.548695
2.625585
2.839565
2.526641
2.499819
2.621412
2.444983
2.465844
2.339482
2.173781
1.949668
2.066493
1.937747
1.913905
1.880527
1.776814
1.831651
1.953840
1.520514
1.509786
1.840591
1.460910
1.437664
1.534820
1.454949
1.598597
1.836419
##ZVALUE=295
0.377893
0.188947
0.267625
0.322461
0.237823
0.444651
0.358820
0.427961
0.412464
0.380874
0.408888
0.302792
0.369549
0.396967
0.407696
0.440478
0.413656
0.481606
0.554919
0.524521
0.672936
0.628829
0.871420
0.705719
0.778437
0.926852
1.039505
0.989437
1.229644
1.987815
11.540651
33.452511
98.348856
184.218884
355.259776
507.353544
703.760982
820.966959
879.708529
843.421817
704.544783
563.016534
360.453725
227.396488
104.879737
50.519705
20.304918
17.357469
25.316477
36.838651
57.621002
75.136423
95.931888
108.830929
117.951632
115.396976
101.617575
87.479949
65.603852
49.626827
30.285716
20.058751
10.774732
6.447434
3.917813
2.817512
2.227426
2.066493
2.091527
2.267957
2.177954
2.165437
2.310872
2.706647
2.447963
2.321601
2.231598
2.215505
2.055764
1.741648
1.760721
1.743436
1.748800
1.685619
1.739860
1.737475
1.385808
1.632571
1.236796
1.457930
1.658797
1.503825
1.489520
1.516938
1.419783
1.579523
##ZVALUE=300
0.367761
0.291467
0.380874
0.377893
0.318885
0.194907
0.459552
0.329614
0.224710
0.270605
0.226498
0.387430
0.479817
0.590682
0.394583
0.439882
0.443459
0.402927
0.406504
0.580549
0.477433
0.542998
0.653863
0.458956
0.601411
0.632405
0.718832
0.692606
0.806451
0.842810
1.079440
1.173615
5.241632
18.268824
62.811971
126.943588
267.646909
414.030552
617.773533
752.996802
863.932967
876.968503
782.348514
656.459928
446.429849
298.672915
152.191520
80.137849
29.127002
14.937520
14.324784
21.165609
34.552813
49.306750
70.798993
87.108612
104.305744
109.334588
109.813809
101.903677
83.630681
67.945719
46.112537
32.848716
18.690825
11.780858
5.978942
3.453493
2.730489
2.444983
2.134442
2.189875
2.076626
2.148747
2.267957
2.167821
2.007484
2.177954
1.721978
1.941919
1.974702
1.773834
1.784563
1.504421
1.445413
1.532435
1.623631
1.517534
1.334548
1.453757
1.558661
1.367927
1.369715
1.477599
1.393557
1.384616
##ZVALUE=305
0.208616
0.210404
0.221729
0.320673
0.315905
0.305772
0.316501
0.267625
0.391603
0.369549
0.248551
0.222921
0.404716
0.368953
0.352859
0.375509
0.293851
0.404716
0.455976
0.568628
0.389814
0.537634
0.571609
0.468493
0.429749
0.622869
0.525713
0.532866
0.754595
0.681877
0.828505
0.864863
0.929832
1.217723
2.108812
11.940598
34.729838
100.175738
185.600519
352.796912
502.506495
695.345998
815.163851
875.378847
832.771659
681.713820
542.531013
345.796943
220.502615
102.698803
50.503612
17.877817
10.977983
13.129711
19.369721
33.207536
47.272444
68.350434
83.027482
98.989606
104.427934
103.080869
94.888806
80.452561
64.223409
43.587685
30.622482
17.685890
10.709763
5.674958
3.803968
2.653599
2.490878
2.335906
2.296567
1.939535
1.873970
1.947880
1.880527
1.708865
1.715422
1.918674
1.559854
1.660585
1.466870
1.545548
1.524687
1.544952
1.443624
1.444817
1.400709
1.439452
1.361966
1.168847
1.114607
1.371503
##ZVALUE=310
0.294447
0.163913
0.244975
0.247955
0.274777
0.444651
0.265837
0.292659
0.187755
0.272989
0.365973
0.372529
0.431538
0.299811
0.442863
0.344515
0.189543
0.370741
0.267625
0.478625
0.308752
0.291467
0.476837
0.423789
0.444651
0.296831
0.502467
0.621676
0.589490
0.586510
0.604987
0.571609
0.775456
0.917912
0.792742
1.110435
1.327991
4.935861
17.352700
60.265660
122.012496
259.069800
401.780605
607.360601
739.066005
846.754909
850.493908
761.736631
643.074512
446.001887
300.623775
153.075457
82.075000
29.737949
12.823939
8.762479
10.817647
18.102527
26.639700
42.943954
56.551695
76.743960
88.392496
97.898841
99.016428
90.469718
78.547001
61.518550
45.448542
28.982759
19.237995
11.351705
6.875992
3.710985
3.045797
2.261996
2.022982
1.897812
1.623631
1.623631
1.533628
1.591444
1.471639
1.666546
1.436472
1.746416
1.597404
1.582503
1.404881
1.307726
1.369715
1.463890
1.274943
1.315475
1.376867
1.338720
##ZVALUE=315
0.178814
0.221729
0.201464
0.317693
0.265837
0.254512
0.354648
0.227690
0.280738
0.271797
0.324845
0.239611
0.406504
0.224710
0.288486
0.234842
0.371933
0.256896
0.252724
0.312924
0.427961
0.335574
0.480413
0.344515
0.361800
0.460744
0.301600
0.527501
0.560880
0.511408
0.577569
0.400543
0.599623
0.738502
0.728965
0.601411
0.781417
1.166463
1.139641
2.137423
8.673668
37.929416
84.229708
197.978616
326.533914
535.388589
671.962500
803.318620
850.647688
804.264545
705.958009
520.627499
371.367931
203.710794
111.449957
41.805506
18.124580
7.785559
7.368922
10.480881
15.247464
26.291609
37.275553
54.848790
68.566799
83.904862
91.644526
91.899633
85.843801
71.966648
59.267879
41.451454
29.543638
17.037988
10.622740
5.407929
3.713965
2.357960
2.222657
1.443624
1.805425
1.685619
1.485944
1.402497
1.368523
1.320839
1.422763
1.493692
1.456738
1.494884
1.638532
1.593828
1.456738
1.197457
1.464486
1.288652
##ZVALUE=320
0.231862
0.220537
0.178814
0.196695
0.151992
0.164509
0.205636
0.191927
0.252724
0.236630
0.198483
0.336766
0.439882
0.440478
0.367761
0.231862
0.352859
0.262856
0.328422
0.328422
0.348687
0.208616
0.398755
0.376701
0.531673
0.324845
0.509620
0.305772
0.524521
0.481606
0.468493
0.553727
0.542998
0.641942
0.568628
0.590682
0.717640
0.773668
0.816584
1.013875
1.073480
1.270771
3.959537
21.656752
54.455400
143.718719
243.310928
419.737697
567.132831
736.868978
820.488930
830.268860
762.447715
598.014593
449.986458
258.838534
148.483515
61.940551
28.571486
9.887815
6.147623
6.758571
8.636713
14.174581
21.466613
35.416484
48.560500
65.128803
76.298714
85.418820
87.352991
81.099868
70.397854
53.217411
41.363835
27.018785
18.244982
9.317994
5.775690
3.353953
2.385974
1.919866
1.542568
1.438856
1.362562
1.318455
1.228452
1.303554
1.242757
1.317859
1.240969
1.186728
1.361966
1.401901
1.275539
1.345873
##ZVALUE=325
0.330806
0.480413
0.453591
0.363588
0.392795
0.277758
0.410676
0.416636
0.480413
0.366569
0.401735
0.438690
0.415444
0.413656
0.405908
0.471473
0.542998
0.521541
0.544786
0.269413
0.497699
0.619888
0.533462
0.620484
0.535846
0.537634
0.735521
0.584722
0.579953
0.653863
0.456572
0.653863
0.854731
0.819564
0.575781
0.954866
0.885725
0.901818
0.786781
0.874996
0.982881
1.057982
1.072884
1.477599
2.340674
13.184547
35.326481
95.147491
175.395608
339.194536
482.639670
665.156841
770.639777
825.055838
783.211589
640.771985
498.128533
311.938524
193.841457
86.690784
42.471886
13.585687
7.116795
5.612969
6.084442
8.363724
13.182759
21.928549
31.807423
48.965812
60.888529
72.618723
81.032515
81.425905
76.595545
63.387752
51.931739
36.597848
26.719570
15.074611
9.187460
5.193949
3.331900
2.412796
2.099872
1.698732
1.531839
1.460910
1.626611
1.366735
1.446605
1.415610
1.305938
1.508594
1.516938
1.355410
##ZVALUE=330
0.087619
0.229478
0.321865
0.160933
0.167489
0.292659
0.214577
0.354648
0.130534
0.171661
0.278950
0.075698
0.446439
0.194907
0.298619
0.303984
0.263453
0.265837
0.226498
0.209808
0.282526
0.213981
0.263453
0.238419
0.421405
0.372529
0.420809
0.333786
0.371933
0.297427
0.403523
0.312924
0.303984
0.458956
0.429749
0.467896
0.533462
0.508428
0.655651
0.451803
0.614524
0.806451
0.824928
0.745654
0.813603
1.193881
1.257658
5.244613
18.067956
63.430667
125.009418
258.220434
385.815501
574.637651
702.121854
797.453523
792.392492
688.470006
567.491651
378.877521
250.597000
120.523572
61.676502
21.200776
8.739829
5.039573
4.654527
5.281568
7.641912
12.979507
19.111633
30.634999
41.938424
58.067441
68.505406
75.520873
76.208711
69.704652
61.874986
47.188997
35.644770
22.939444
15.639663
8.998513
5.589724
3.199577
2.328753
1.602769
1.636744
1.435876
1.295805
1.336932
1.273751
1.288652
1.141429
1.092553
##ZVALUE=335
0.148416
0.011921
0.139475
0.157952
0.142455
0.268817
0.250936
0.174642
0.123978
0.206828
0.330806
0.200868
0.329614
0.169873
0.165701
0.324845
0.266433
0.214577
0.093579
0.355840
0.168681
0.152588
0.194907
0.255704
0.251532
0.382662
0.169873
0.305772
0.163913
0.345707
0.352859
0.419617
0.338554
0.585914
0.445843
0.454783
0.486970
0.682473
0.473857
0.539422
0.553727
0.514984
0.522733
0.657439
0.593662
0.895858
0.756979
0.905991
1.125932
2.364516
8.895993
37.338734
81.719756
187.150836
305.975676
497.166514
630.618930
752.318501
784.212947
723.619461
621.089935
442.569852
307.246447
163.738728
87.291002
29.860735
12.280941
5.419850
4.442930
4.732609
5.146861
7.392764
10.808706
19.608736
27.697682
42.062998
52.955747
64.227581
69.513917
70.510507
65.781474
54.731965
46.271682
33.925772
24.798512
15.577674
9.852648
5.587935
3.539920
2.130866
2.090931
1.243949
1.471639
1.264811
1.093745
1.023412
##ZVALUE=340
0.138879
0.173450
0.045896
0.150800
0.284910
0.122786
0.336766
0.142455
0.253916
0.101924
0.250936
0.362992
0.198483
0.316501
0.298619
0.246763
0.276566
0.185966
0.233650
0.200868
0.143647
0.198483
0.319481
0.282526
0.209808
0.336766
0.251532
0.332594
0.335574
0.326633
0.164509
0.294447
0.367761
0.346899
0.417829
0.459552
0.396967
0.414848
0.595450
0.434518
0.485778
0.517964
0.580549
0.540614
0.585914
0.562668
0.580549
0.613928
0.898838
0.969768
1.019835
1.482964
4.316568
22.778511
56.834817
143.555999
246.358514
413.810611
548.849702
693.935752
754.427910
737.815499
656.198859
500.870943
361.196995
192.332864
108.171701
44.051409
17.800927
5.975962
4.909635
4.362464
4.360676
4.985929
6.724000
11.154413
17.022491
26.954412
37.080646
50.489902
59.062839
65.989494
65.960884
61.659813
55.362582
43.361783
33.052564
23.070574
16.137958
9.527802
6.000996
3.171563
1.921654
1.638532
1.513958
1.141429
##ZVALUE=345
0.119805
0.206828
0.169873
0.225902
0.217557
0.195503
0.211596
0.246763
0.041723
0.074506
0.192523
0.177622
0.072718
0.263453
0.224710
0.196695
0.115633
0.270605
0.135899
0.329614
0.334978
0.449419
0.289679
0.332594
0.056624
0.108480
0.136495
0.308752
0.213981
0.478625
0.437498
0.229478
0.250936
0.402927
0.439882
0.186563
0.223517
0.336766
0.436902
0.329614
0.527501
0.363588
0.473857
0.466704
0.579953
0.403523
0.600815
0.496507
0.524521
0.643730
0.683665
0.842810
0.929832
1.123548
2.051592
12.436509
34.964681
98.222494
177.492499
330.376625
460.903645
626.570582
712.860823
745.706558
699.352622
562.409759
424.794555
250.215530
145.685673
62.088966
26.996732
8.816719
5.125999
4.225969
3.884435
3.916621
4.270673
6.212592
9.378791
15.928745
23.768544
35.376549
44.179559
54.979920
59.962869
62.142611
58.597922
51.246881
43.730736
32.723546
24.314523
14.874935
10.084510
5.671978
3.868937
2.343655
##ZVALUE=350
0.196695
0.063777
0.148416
0.070930
0.063777
0.102520
0.151992
0.286698
0.158548
0.116825
0.051856
0.284910
0.089407
0.150800
0.180602
-0.017881
0.278950
0.327826
0.213981
0.217557
0.153780
0.234842
0.263453
0.325441
0.148416
0.223517
0.339746
0.286698
0.341535
0.382662
0.294447
0.169873
0.353456
0.193715
0.279546
0.309944
0.373721
0.181794
0.203848
0.318885
0.408888
0.415444
0.417829
0.563860
0.418425
0.298619
0.429749
0.406504
0.379682
0.591874
0.652671
0.654459
0.746846
0.912547
0.831485
0.940561
1.434684
6.337762
19.811988
63.907504
124.906898
255.364776
376.746655
539.800525
648.891926
723.886490
706.406832
599.451661
472.463965
292.284489
180.752873
79.670548
36.531687
10.533929
5.408525
4.106760
3.971457
3.541708
3.474951
3.918409
5.313754
9.336472
13.509989
21.182895
28.924942
39.760470
46.810508
54.428577
55.709481
54.302812
49.010515
39.609671
31.223893
21.710992
15.277863
9.202957
##ZVALUE=355
0.130534
0.269413
0.205636
0.243783
0.300407
0.242591
0.200868
0.181794
-0.000596
0.142455
0.187755
0.191927
0.322461
0.196695
0.198483
0.080466
0.074506
0.285506
0.145435
0.248551
0.040531
0.154972
0.158548
0.362992
0.202656
0.157952
0.461936
0.242591
0.418425
0.204444
0.359416
0.256896
0.325441
0.447631
0.293851
0.316501
0.409484
0.324845
0.296831
0.428557
0.280738
0.348687
0.472665
0.375509
0.375509
0.488758
0.414848
0.445843
0.531673
0.501871
0.537634
0.648499
0.704527
0.551939
0.603795
0.822544
0.744462
0.839829
1.062751
2.110600
12.191534
33.777952
93.940496
169.904828
318.844914
445.507765
601.382852
679.372549
697.358847
630.066991
484.195948
362.311602
210.199952
118.417740
47.182441
20.307899
6.652474
4.122853
3.677607
3.160834
3.085732
3.092885
3.569722
4.610419
7.225871
11.073947
18.481612
24.761558
34.992695
41.618943
48.741698
50.253868
49.215555
45.371652
37.235618
30.550957
##ZVALUE=360
0.191927
0.220537
0.233650
0.110865
0.159740
0.190735
0.155568
0.357628
0.204444
0.236630
0.119805
0.199676
0.110865
0.038743
0.015497
0.254512
0.253916
0.152588
0.152588
0.118613
0.194907
0.402927
0.451803
0.197887
0.059605
0.252724
0.327826
0.237823
0.160933
0.218749
0.074506
0.420809
0.255704
0.315905
0.238419
0.383854
0.286698
0.260472
0.208616
0.332594
0.223517
0.324845
0.381470
0.319481
0.345707
0.420809
0.495911
0.378489
0.585914
0.519753
0.419617
0.500679
0.434518
0.630617
0.626445
0.684857
0.640750
0.734925
0.681877
0.819564
1.051426
1.543760
4.285574
20.996928
52.539706
133.452415
226.224661
376.629829
502.857566
635.430813
678.860545
654.222965
571.424961
406.295657
279.024839
141.500831
74.654818
27.316809
10.803938
4.316568
3.634691
3.356934
3.001690
2.761483
2.831817
3.027916
3.617406
5.853772
8.689761
14.201999
20.403862
29.309988
35.694838
43.265820
45.934916
45.035481
##ZVALUE=365
0.224710
0.192523
0.071526
0.208616
0.199676
0.087619
0.144839
0.205636
0.197887
0.136495
0.204444
0.173450
0.193715
0.190735
0.240803
0.195503
0.294447
0.298619
0.188947
0.301600
0.206828
0.238419
0.354648
0.229478
0.325441
0.356436
0.253916
0.317693
0.199676
0.309944
0.118613
0.153780
0.331998
0.335574
0.378489
0.310540
0.359416
0.190735
0.332594
0.318885
0.201464
0.269413
0.386834
0.448823
0.366569
0.427961
0.306964
0.405908
0.456572
0.453591
0.568628
0.531673
0.614524
0.452995
0.372529
0.511408
0.510812
0.707507
0.547767
0.587702
0.766516
0.802875
0.947714
1.142621
2.039671
11.384487
32.316446
86.928606
164.033771
312.001705
432.019830
579.093695
649.791956
653.022528
592.283010
457.288623
334.596634
182.953477
102.571845
38.416982
15.596747
5.055666
3.693700
3.254414
2.937913
2.812743
2.515912
2.654791
2.723932
3.294945
4.480481
7.688999
11.380911
17.715693
23.445487
31.345487
##ZVALUE=370
0.214577
0.272989
0.187755
0.264645
0.168681
0.289679
0.121593
0.267625
0.219941
0.306964
0.150800
0.451803
0.352859
0.292659
0.250936
0.183582
0.164509
0.271797
0.050664
0.196695
0.230670
0.192523
0.305772
0.254512
0.462532
0.203848
0.359416
0.246763
0.269413
0.183582
0.249743
0.386834
0.230670
0.412464
0.438690
0.308752
0.365973
0.335574
0.219941
0.367761
0.263453
0.182986
0.334978
0.471473
0.415444
0.298619
0.315905
0.378489
0.450611
0.502467
0.476837
0.495911
0.331998
0.453591
0.380874
0.478625
0.450611
0.655651
0.490546
0.590682
0.633597
0.625849
0.660419
0.765920
0.950694
0.869632
1.316667
5.794764
19.390583
65.870881
125.020742
244.166851
363.868475
524.892807
614.557862
655.107498
616.703629
498.250723
381.674767
226.602554
132.154822
54.481626
24.021864
7.315874
4.195571
3.109574
2.920628
2.710819
2.505779
2.223849
2.040863
2.237558
2.516508
3.956556
5.988479
9.927750
##ZVALUE=375
0.179410
0.219941
0.147820
0.268817
0.271797
0.265837
0.293851
0.190735
0.156760
0.166893
0.251532
0.327826
0.227690
0.279546
0.167489
0.260472
0.096560
0.220537
0.257492
0.197887
0.169873
0.182986
0.152588
0.205636
0.271797
0.242591
0.132918
0.296831
0.160933
0.330806
0.374913
0.318885
0.202656
0.413656
0.202656
0.325441
0.142455
0.327826
0.176430
0.263453
0.286698
0.354648
0.321865
0.349879
0.389814
0.285506
0.408888
0.342727
0.311732
0.433922
0.384450
0.400543
0.396967
0.368953
0.359416
0.384450
0.420809
0.390410
0.336766
0.427961
0.505447
0.542998
0.396967
0.629425
0.640750
0.830889
0.664592
0.819564
1.137853
2.496839
13.292432
34.705400
93.877912
170.880556
311.244726
428.333879
567.961931
634.669662
632.729530
565.663576
422.060490
305.531621
176.342726
102.234483
40.649772
17.017722
5.326867
3.123879
2.838969
2.663732
2.609491
2.223849
2.053976
1.988411
2.156496
2.318621
##ZVALUE=380
0.209808
0.058413
0.118613
-0.021458
0.254512
0.160933
0.243783
0.131726
0.112653
0.194907
0.196695
0.140667
0.203848
0.329614
0.458956
0.080466
0.125766
0.302792
0.220537
0.041723
0.177622
0.253916
0.259876
0.091791
0.138879
0.099540
0.224710
0.349879
0.174642
0.263453
0.215769
0.165701
0.147820
0.277758
0.341535
0.331998
0.284910
0.106692
0.139475
0.264645
0.210404
0.248551
0.327826
0.280738
0.302792
0.265837
0.158548
0.224710
0.246763
0.321865
0.344515
0.202656
0.207424
0.381470
0.346899
0.443459
0.292659
0.396967
0.417829
0.349879
0.478625
0.411868
0.279546
0.493526
0.510812
0.558496
0.660419
0.601411
0.652671
0.900626
1.090765
1.587868
6.877780
21.896958
68.584681
130.580664
254.292488
377.754569
530.376434
611.152649
638.107657
595.996976
485.723615
376.915932
230.880976
140.743852
60.694814
27.995706
7.598996
3.557801
2.848506
2.600551
2.462864
2.272725
2.051592
2.002716
##ZVALUE=385
0.151992
0.259876
0.253916
0.282526
0.137687
0.061989
0.204444
0.213981
0.017881
0.070930
0.176430
0.249743
0.272989
0.364780
0.202656
0.237823
0.178814
0.209808
0.209808
0.143647
0.079870
0.145435
0.169873
0.172853
0.260472
0.244975
0.122786
0.237823
0.031590
0.099540
0.131726
0.322461
0.119805
0.068545
0.100732
0.304580
0.321865
0.216961
0.335574
0.509620
0.132918
0.176430
0.274777
0.155568
0.081658
0.254512
0.216961
0.315905
0.424981
0.245571
0.267625
0.248551
0.345707
0.347495
0.239611
0.293851
0.251532
0.237823
0.337958
0.305772
0.355840
0.242591
0.362992
0.496507
0.500679
0.494719
0.356436
0.623465
0.558496
0.626445
0.660419
0.830889
0.826716
1.168847
2.628565
15.148520
39.884448
104.715824
189.399719
340.643525
460.209846
588.098764
631.116629
614.279509
551.585555
418.810844
308.454633
175.850987
102.045536
42.258501
17.380714
4.670620
2.828836
2.452731
2.403855
2.350807
##ZVALUE=390
0.185966
0.124574
0.099540
0.230670
0.166893
0.176430
0.245571
0.182986
0.209808
0.138879
0.270605
0.055432
0.350475
0.100732
0.341535
0.319481
0.276566
0.200868
0.074506
0.247955
0.167489
0.095963
0.153780
0.292659
0.162721
0.183582
0.232458
0.149608
0.309944
0.178814
0.268817
0.128746
0.195503
0.321865
0.192523
0.164509
0.375509
0.320673
0.263453
0.364780
0.347495
0.253916
0.236630
0.228882
0.381470
0.329614
0.323653
0.452995
0.252724
0.250936
0.341535
0.202656
0.248551
0.331998
0.251532
0.390410
0.218749
0.300407
0.407696
0.244975
0.488758
0.465512
0.395775
0.401735
0.387430
0.497699
0.449419
0.650883
0.527501
0.630617
0.767708
0.635982
0.606775
0.808835
0.753999
0.995994
1.353621
8.041859
24.996996
77.374578
148.015618
281.764865
389.732718
518.326759
593.803525
630.311966
593.341589
485.439897
380.839705
240.636468
143.678784
61.716437
28.087497
7.522702
3.627539
2.749562
##ZVALUE=395
0.268817
0.132918
0.185966
0.196695
0.272989
0.330806
0.255704
0.237823
0.172853
0.131726
0.145435
0.144839
0.058413
0.297427
0.186563
0.011921
0.066757
0.325441
0.305772
0.229478
0.138879
0.238419
0.323653
0.215769
0.232458
0.143647
0.174642
0.235438
0.289679
0.177622
0.270605
0.307560
0.313520
0.214577
0.143647
0.253916
0.182986
0.363588
0.442863
0.306964
0.186563
0.366569
0.315905
0.165701
0.245571
0.253916
0.232458
0.235438
0.372529
0.216961
0.124574
0.203848
0.217557
0.276566
0.356436
0.300407
0.289679
0.389814
0.313520
0.319481
0.373721
0.349879
0.366569
0.468493
0.535846
0.356436
0.372529
0.622869
0.652671
0.569820
0.588894
0.694990
0.711679
0.488758
0.766516
0.669956
0.771880
0.790954
0.878572
3.759861
14.078617
52.263737
105.178952
213.372707
319.085717
472.026467
565.740466
635.718703
629.751682
549.449921
442.714691
285.328627
186.094642
90.889931
44.503808
14.503598
##ZVALUE=400
0.100732
0.015497
0.016689
0.093579
0.096560
0.107884
-0.132918
-0.117421
-0.017881
-0.120997
0.004768
0.041723
0.022650
-0.056624
0.002980
-0.006557
-0.013709
0.053644
0.019670
-0.084639
-0.063777
-0.076890
0.046492
-0.038743
-0.035763
-0.004768
0.068545
-0.043511
0.040531
0.022650
-0.021458
-0.007749
0.019670
-0.094771
0.050664
0.040531
0.097752
0.025630
0.215769
0.197887
0.200868
0.007749
0.121593
0.121593
0.193715
0.224710
0.104904
0.059605
0.009537
0.064969
0.076890
0.113845
0.175834
0.154972
0.131726
0.201464
0.207424
0.197887
0.190735
0.202656
0.097752
0.054836
0.076890
0.082850
0.242591
0.273585
0.221729
0.248551
0.272989
0.387430
0.377893
0.525713
0.468493
0.290871
0.420809
0.507832
0.516772
0.569820
0.559688
0.525713
0.680685
2.258420
8.758903
33.224821
73.130727
164.186954
262.961984
417.021513
520.365834
614.838004
636.016726
571.436882
475.922823
324.059725
219.350457
113.905668
##END
