##TITLE=FDDW1
##FORMAT=SPECTACLE-ASCII V-1.2
##DATA TYPE=ULTRAVIOLET SPECTRUM
##SECOND TYPE=ULTRAVIOLET SPECTRUM
##DATE=02/01/18
##TIME=14:33:55
##SPECTROMETER/DATA SYSTEM=SPECTACLE
##XUNITS=NM EM
##YUNITS=ENERGY
##YFACTOR=1
##FIRSTX=220
##LASTX=410
##NPOINTS=96
##3DDATA=Equidistant
##ZUNITS=NM EX
##FIRSTZ=210
##LASTZ=400
##ZPOINTS=39
##XYDATA=(Y..Y)
##ZVALUE=210
14.163852
14.795661
12.138486
10.137558
10.353923
9.046793
8.894801
7.402897
5.678535
4.531741
2.580881
2.763867
1.644492
1.771450
1.322627
1.567602
1.257658
1.582503
1.699924
1.671910
2.575517
2.222657
2.037883
2.381802
2.543926
3.519654
3.941655
4.887581
5.899668
7.150769
6.900430
7.616878
8.217692
10.082722
9.520650
10.319948
10.248423
10.539889
10.529757
9.283423
9.689927
9.603500
8.828640
8.750558
8.047819
7.573962
7.595420
7.139444
6.545782
6.954670
5.602837
5.330443
5.201697
5.067587
4.835725
5.879998
5.294681
4.880428
5.211830
5.260706
5.252957
3.985763
4.880428
4.421473
4.310608
4.615784
4.430413
4.510880
5.658865
6.062984
6.896853
7.603765
8.353591
9.470582
9.762645
10.889769
9.861588
9.922981
9.927750
9.147525
8.809566
7.617474
5.566478
5.513430
4.488826
4.251599
3.612638
4.063845
4.883409
5.792975
8.692741
9.790659
13.884902
17.284751
22.535920
28.585792
##ZVALUE=215
35.803914
35.077929
26.955605
23.871660
17.600656
17.845631
16.383529
16.586781
15.135407
13.335943
10.541677
8.581877
5.688667
4.178882
3.216863
2.050996
2.289414
2.048612
2.118945
2.106428
2.093911
2.085567
2.324581
2.588630
2.919436
4.149675
3.964901
5.589724
7.279515
7.326603
9.220839
10.601878
10.283589
12.270808
11.404753
11.645555
11.534691
12.643933
11.559725
11.307597
11.839867
10.961890
10.924935
10.468960
9.715557
9.287000
8.494854
7.660985
7.260442
7.461905
7.137656
6.956458
7.151961
6.850958
6.780624
6.589890
5.424619
4.958510
5.410910
5.261898
4.887581
5.218983
5.313754
4.597902
4.565716
5.192757
4.846454
4.637837
4.867911
5.608797
6.674528
8.375645
7.981658
7.604957
9.674430
9.754896
9.262562
8.863807
8.173585
7.587671
7.389784
6.903410
6.804466
5.689859
4.727840
4.892945
4.318953
4.131794
3.499985
2.901554
3.438592
3.245473
3.774762
4.883409
6.599426
9.134412
##ZVALUE=220
77.044964
75.404644
75.583458
61.447620
57.493448
43.674707
34.136772
27.743578
25.196671
24.255514
24.615526
25.656819
22.358894
18.012524
13.576746
10.334849
5.674958
3.740788
2.963543
1.922846
2.339482
2.893806
2.097487
2.649426
3.541708
3.724694
5.292892
6.399751
8.210540
9.825826
11.905432
12.616515
14.063716
13.769865
14.290810
15.445948
14.289618
14.814734
13.179779
13.526678
13.239980
13.891459
13.003945
11.422634
11.558533
10.196567
8.834600
9.123683
9.888411
8.255839
8.546710
8.514524
6.990433
7.780790
7.181764
6.449819
7.067919
5.875826
6.331801
6.128550
5.730987
5.030632
5.566478
5.985498
6.065965
5.605817
5.511642
5.196929
5.756617
6.089807
6.593466
7.990599
9.177923
8.892417
8.951426
9.263754
9.348989
8.971691
8.735657
8.113980
7.784963
6.397963
6.507635
6.103516
5.364418
4.527569
5.055666
3.488660
4.122853
4.269481
4.286766
3.101826
3.076792
4.004836
3.462434
3.642440
##ZVALUE=225
95.526576
100.285411
118.738413
134.868622
131.977797
118.211508
104.075670
77.770948
61.406493
49.431920
41.149855
36.894679
41.604638
39.771795
35.509467
33.316612
25.963783
20.616651
15.231967
9.552836
5.776882
4.276633
2.956986
3.785491
4.288554
4.620552
5.241632
6.966591
8.260608
8.994937
11.207461
11.212826
13.562441
12.072921
14.017820
15.040636
14.781952
14.098883
13.040900
14.154911
14.159679
12.446642
12.455583
11.308789
10.642409
10.562539
10.583997
9.903908
8.750558
8.463860
9.542704
8.887649
7.680655
7.650852
6.861687
7.080436
6.671548
7.282495
7.365942
6.162524
6.363988
6.421804
6.617904
6.672740
6.312728
6.243587
5.562901
5.839467
6.660819
7.303953
7.914901
9.061694
8.563995
9.376407
8.731484
9.607673
8.964539
7.992983
8.617640
8.770823
7.076859
6.820560
6.222725
6.883740
5.048513
5.141497
4.474521
4.491806
4.825592
4.434586
4.579425
3.872514
3.705621
3.600717
4.474521
3.899932
##ZVALUE=230
61.572790
66.817999
98.103881
148.238540
186.157823
216.576457
228.979588
209.793448
184.264779
152.419806
106.489658
79.860687
63.961744
57.827830
62.655807
62.109828
62.778592
59.318542
51.991940
40.968657
29.994845
17.980933
10.491610
6.683469
6.247759
5.070567
5.317926
6.528497
7.110834
7.847548
8.010864
9.966493
9.881854
11.047721
12.230873
12.297630
11.317730
10.631680
11.816621
11.677742
10.942817
10.183454
10.282993
9.665489
9.008646
9.297729
9.148717
8.257627
7.881522
8.348823
8.998513
8.093715
7.862449
8.022785
7.599592
7.337928
7.895827
7.374883
8.113980
6.793737
6.747842
6.744862
6.474853
7.405877
6.645918
7.268786
6.335974
8.286834
6.901622
8.281469
8.289814
8.973479
11.423826
9.808540
12.189746
11.048913
10.881424
9.354949
9.155869
8.017421
8.863807
7.085800
6.897449
6.509423
5.958676
6.426573
5.165935
5.456805
5.831718
4.787445
5.541444
4.796982
4.910827
4.663467
5.098581
4.280806
##ZVALUE=235
16.038418
18.521547
39.273500
88.566542
138.675570
212.390423
275.003910
336.015821
358.701944
337.974429
300.606489
249.605775
167.658925
128.825903
96.843839
82.936883
85.802674
88.211894
94.966888
94.443560
84.779859
71.820617
51.317811
36.760569
24.841428
14.987588
11.375546
8.403659
6.879568
8.101463
7.983446
7.607937
8.350611
8.639693
9.087920
8.604527
8.389950
9.023547
9.831786
8.509755
8.597970
8.871555
9.841919
8.788705
8.247495
7.968545
7.900596
8.169413
7.041693
7.507801
6.772876
6.955862
6.539822
6.862879
7.258654
6.452799
6.905794
6.836653
7.759929
6.479621
7.143617
7.781982
7.271767
6.860495
6.373525
7.056594
7.407665
7.044673
7.477999
8.596778
9.354949
10.287762
9.078979
12.043715
9.413958
11.360645
11.371970
9.940863
10.276437
9.162426
9.697676
7.990599
7.262826
8.621812
7.243752
5.606413
5.858541
7.344484
5.853772
6.991625
5.703568
6.555915
5.425811
5.777478
5.667806
5.033612
##ZVALUE=240
0.913739
1.167655
4.734993
14.866590
42.923689
74.462891
153.145790
226.996541
338.909626
404.591560
458.138585
451.083779
418.666601
331.000686
256.191492
165.809989
125.343800
96.278787
91.780424
100.187659
108.507872
110.903978
110.941529
99.790692
79.154968
63.189864
44.841766
30.186772
20.275712
13.771653
11.148453
10.337830
9.307861
9.772778
7.759929
8.956790
8.150935
7.980466
7.917881
7.706881
7.645488
7.990599
7.848740
7.698536
7.175803
7.338524
6.658435
6.429553
7.409453
7.106662
6.689429
6.346703
6.837845
6.824732
6.421804
6.189942
6.266832
6.547570
5.132556
5.844831
5.633831
6.280541
6.269813
6.262660
6.122589
7.074475
6.213784
7.427931
7.185936
7.661581
8.547902
8.815527
8.727908
9.325743
9.968877
10.128617
11.061430
9.403825
8.919835
7.873774
8.895993
8.194447
6.900430
7.150769
6.685853
6.628633
6.309748
6.229877
6.417632
5.424619
5.884767
5.147457
5.207658
5.784631
4.659891
5.201697
##ZVALUE=245
1.070499
0.596642
0.840425
0.956655
2.431870
11.594892
27.515888
73.088408
135.428905
207.308531
332.971811
427.761674
511.824489
535.234809
495.849848
438.796878
325.868726
241.949558
158.933997
114.707947
96.859932
95.314980
108.051896
121.902823
126.291513
119.960904
108.275414
87.739825
71.390867
50.670505
36.146641
24.908781
16.611814
13.146996
10.820627
10.395646
9.721518
9.874701
9.111762
8.154511
8.328557
9.049773
8.320808
7.028580
6.995797
7.418990
6.968975
6.766915
6.330609
6.123781
7.257462
5.803704
6.738901
6.028414
5.898476
5.826950
6.344914
5.097985
5.676746
6.434917
5.469918
5.297661
5.562901
5.356669
5.505681
5.364418
5.706549
5.564690
6.255507
6.428957
7.355809
7.168651
7.693768
7.920861
9.681582
9.139776
8.439422
8.015633
7.878542
6.945729
6.788969
6.264448
6.100535
5.853772
6.117821
6.058812
5.798936
5.469918
5.287528
5.281568
5.688667
4.966855
4.555583
4.473925
4.789829
5.470514
##ZVALUE=250
0.823736
0.796914
0.761747
0.929832
0.636578
0.759959
1.861453
4.835725
23.305416
51.213503
125.909448
206.512809
301.787853
431.027412
515.716672
590.159893
585.621595
524.803996
441.961884
306.794643
215.850472
146.006942
102.134943
87.611675
101.541877
116.582513
129.501820
133.183599
129.241943
117.141604
102.267861
77.494979
60.211420
37.592649
27.689934
17.818809
14.253855
10.330677
10.282993
9.158850
9.302497
9.196997
8.700490
7.687807
8.091927
7.689595
7.951856
7.850528
7.550716
7.342696
6.153584
6.647706
6.494522
5.565882
6.063581
5.417466
5.670786
5.798936
5.570650
5.332828
5.158782
5.110502
4.507899
4.636645
5.298853
4.363656
4.470944
5.583763
5.413890
5.371571
6.364584
7.126927
6.659627
7.176995
6.527901
7.272959
6.894469
6.675720
6.357431
6.426573
5.830526
5.537868
5.217791
5.146861
4.731417
4.889965
4.785657
4.630685
4.278421
4.215837
3.860593
4.136562
4.750490
4.591942
4.608631
3.971457
##ZVALUE=255
0.574589
0.754595
0.726581
0.443459
0.630617
1.003742
0.719428
0.878572
1.246929
2.811551
14.170408
36.438704
78.225732
173.344612
268.716812
419.722795
521.484613
621.700883
651.315451
618.702769
538.544655
432.700515
275.790691
183.031559
107.064843
83.520412
86.326599
100.236535
121.250749
134.872794
137.374997
136.831999
128.560662
102.087855
81.374645
55.510998
40.107965
25.235415
16.702414
11.967421
11.317730
9.018779
9.559989
9.604692
8.938909
8.917451
8.189678
8.033514
7.926822
6.844997
7.183552
6.819963
6.330609
5.929470
5.867481
6.252527
5.574822
5.487800
5.641580
4.822612
4.720688
4.452467
4.909635
4.833937
4.779696
4.603863
4.798770
4.701614
4.961491
5.425811
5.279779
5.612969
6.122589
6.293654
6.345510
6.181598
5.454421
5.562901
5.302429
5.596876
5.000830
4.551411
4.435778
4.216433
3.683567
3.609657
4.035830
3.471971
3.684759
3.434420
3.525615
3.696680
3.193617
3.719926
2.874732
3.473759
##ZVALUE=260
0.553727
0.564456
0.776649
0.714660
0.652671
0.841618
0.762939
0.808835
0.891685
1.032948
1.262426
1.616478
5.187988
23.908615
54.003596
131.265521
220.245719
364.590883
484.565496
643.234849
712.402463
722.736716
638.647676
524.479747
351.384878
244.149566
144.806504
95.574856
72.835684
77.272654
96.068978
121.432543
135.273933
143.435001
139.705539
125.745535
106.550455
80.094934
59.165955
37.387609
26.394725
17.716885
12.891889
11.277795
10.266900
9.487867
9.019971
9.511709
8.473992
7.960796
8.280873
7.480979
7.289648
6.701946
6.302595
6.431937
6.444454
5.715489
5.932450
5.291700
5.162954
4.966855
4.803538
5.119443
4.617572
4.564524
4.362464
4.896522
4.301667
4.620552
4.716516
5.207658
4.957914
5.390644
5.432963
5.566478
4.915595
5.503893
4.531741
4.628897
4.563928
4.107952
3.969669
3.868937
3.369451
3.740788
3.754497
3.360510
3.319979
3.061891
3.489852
3.197789
3.325939
3.057718
3.003478
3.000498
##ZVALUE=265
0.510812
0.447631
0.554919
0.605583
0.458956
0.497699
0.612736
0.695586
0.552535
0.699759
0.886917
0.771880
0.899434
1.324415
2.921820
15.503764
37.741661
97.118616
173.077583
336.333513
476.662517
606.129766
743.368864
774.510503
717.139840
621.571541
465.087891
335.128903
189.902782
117.831826
80.975890
66.380501
78.735948
105.082989
123.767853
141.445994
145.127773
141.028762
127.717853
102.465749
80.592632
56.223869
40.552616
25.041699
17.139912
12.599826
10.837913
10.106564
9.567738
8.674860
8.387566
7.804632
7.739663
7.437468
6.925464
6.684661
6.419420
5.938411
5.767941
5.404949
5.456805
5.137920
4.811883
4.533529
4.819632
4.153848
4.403591
4.615784
4.166961
4.375577
4.472733
4.672408
4.707575
4.978776
5.286932
4.299879
4.587770
4.393458
4.249811
4.101992
4.104972
3.473759
3.583431
3.321767
3.197789
3.233552
3.038645
3.074408
2.674460
2.764463
2.244711
2.591610
2.936721
2.830625
2.707839
2.858639
##ZVALUE=270
0.563860
0.550747
0.492930
0.529885
0.476837
0.621676
0.474453
0.603795
0.529885
0.537634
0.806451
0.873804
0.971556
1.002550
0.936985
1.046658
1.478791
6.438494
20.074844
67.789555
138.209462
245.410800
433.346629
584.817529
743.880868
805.936456
798.758864
730.995536
573.724508
435.450673
300.851464
160.270929
97.452998
58.486462
59.226751
81.454515
99.540949
126.529932
140.093565
144.551992
141.278505
125.518441
108.086467
80.201626
59.233904
36.656857
25.954843
17.428994
12.489557
9.950995
9.239912
8.593798
8.089542
7.245541
7.265806
6.986856
6.447434
6.193519
6.080866
5.231500
5.488992
5.312562
4.590750
4.937649
4.483461
4.332662
4.171729
4.474521
4.443526
4.074574
4.539490
4.905462
4.737973
4.727840
4.465580
4.485846
4.342794
3.980994
3.965497
3.735423
3.633499
3.501773
2.836585
3.010631
2.744794
2.740622
2.651811
2.928972
2.518892
2.832413
2.530813
2.662539
2.534986
2.553463
2.360940
2.535582
##ZVALUE=275
0.452995
0.667572
0.593662
0.468493
0.494719
0.547767
0.562668
0.652671
0.555515
0.713468
0.784993
0.706911
0.808835
0.793934
0.614524
0.872612
1.060963
1.013875
1.111627
3.117919
11.980534
35.606623
106.541514
200.910568
382.092595
524.221659
692.397952
796.064734
840.989947
802.341700
710.659027
526.754856
378.387570
205.101967
122.232437
61.404705
46.843886
58.623552
75.161457
100.739002
120.125413
136.675835
143.532753
135.904551
123.489499
98.165870
79.937577
56.432486
39.603710
24.262667
17.285943
10.948777
8.575916
7.430911
6.834865
6.566644
6.873608
5.667806
5.734563
5.570650
5.164742
5.121827
4.667640
4.779696
4.327893
4.379749
4.221797
4.542470
4.650950
4.251599
4.268885
4.336834
4.491806
4.067421
4.430413
4.532933
4.296899
4.151464
3.793836
3.555417
3.344417
3.374815
2.989769
2.616644
3.002882
2.927780
2.517700
3.006458
2.531409
2.320409
2.778769
2.544522
2.618432
2.509952
2.468824
2.503991
##ZVALUE=280
0.447631
0.428557
0.366569
0.644922
0.635982
0.411868
0.544786
0.528693
0.262856
0.633597
0.540614
0.789762
0.669956
0.604987
0.656843
0.697970
0.681877
0.917912
0.795722
1.014471
1.277924
1.369715
7.043481
25.529861
81.637502
152.341723
293.085575
430.426598
626.186728
752.552748
831.094980
840.933919
765.139461
593.897700
440.067649
256.511569
154.195428
71.772933
44.122934
39.261580
50.082803
75.276494
93.874931
118.927956
130.995512
138.115883
132.985711
116.992593
98.805428
72.806478
55.524707
35.087466
23.084879
13.451576
9.702444
6.528497
5.871654
5.225539
5.124807
4.769564
4.941821
4.652739
4.650950
4.693866
4.373789
4.252791
4.393458
3.801584
4.034638
3.902912
3.871918
4.328489
4.536510
4.182458
4.198551
4.097819
3.978610
3.322959
3.822446
3.332496
2.907515
2.998710
2.951622
2.684593
2.689958
2.599955
2.948642
2.435446
2.577901
2.712607
2.511740
2.342463
2.404451
2.305508
2.328753
2.512932
##ZVALUE=285
0.325441
0.294447
0.464916
0.528693
0.418425
0.382662
0.284910
0.328422
0.427961
0.430942
0.485778
0.427961
0.554919
0.677705
0.597835
0.530481
0.608563
0.651479
0.681877
0.703931
0.826716
1.192689
0.994802
1.338720
3.273487
12.265444
44.060946
94.701648
212.459564
336.833596
461.558700
680.912733
801.788568
864.799619
829.765797
685.170889
537.817478
337.224603
212.859511
102.938414
55.547953
30.283928
31.266809
48.440695
65.832734
92.905760
108.032823
125.313997
131.765604
125.791430
115.732551
95.217824
77.510476
52.487850
37.617683
20.513535
13.297796
7.467866
5.860925
4.500747
4.364848
4.060864
3.952980
4.063845
3.549457
3.719926
3.610849
3.852844
3.721714
3.854632
4.029870
3.773570
3.827810
3.815889
3.582835
3.750920
3.589988
3.497601
3.416538
3.008842
2.884865
2.996922
3.152490
2.662539
2.639890
2.420545
2.283454
2.414584
2.398491
2.408624
2.459884
2.306700
2.249479
2.540946
2.195835
2.291799
##ZVALUE=290
0.237823
0.378489
0.430942
0.391603
0.438690
0.366569
0.553727
0.377893
0.298619
0.635982
0.489950
0.396967
0.272989
0.530481
0.472665
0.629425
0.508428
0.620484
0.442863
0.570416
0.727773
0.823736
0.591874
0.932813
1.035929
1.172423
1.671910
5.332828
26.003718
60.130954
119.696856
254.705548
405.532718
618.737936
758.896470
868.512988
859.497786
756.359696
622.715950
423.893929
284.328461
142.738819
77.103972
31.197667
22.597909
29.017925
41.489601
62.798858
81.460476
103.966594
118.086934
124.975443
123.588443
109.575987
95.224977
69.792867
52.398443
33.564568
21.822453
11.942983
7.718801
5.061626
4.117489
3.602505
3.351569
3.254414
3.193617
3.161430
3.070831
3.285408
3.420711
3.641844
3.735423
3.674626
3.799796
3.240705
3.401637
2.974868
3.194809
2.930760
2.629757
2.676845
2.509952
2.837777
2.435446
2.270937
2.286434
2.251863
2.419949
2.631545
2.232790
2.101660
2.181530
2.139807
2.435446
2.239943
##ZVALUE=295
0.452995
0.163913
0.385642
0.383854
0.355840
0.260472
0.379682
0.250936
0.355840
0.368953
0.452995
0.467896
0.364780
0.432730
0.454783
0.611544
0.447631
0.456572
0.540614
0.679493
0.501871
0.445843
0.615716
0.631809
0.921488
0.836849
1.067519
1.026988
1.378655
2.310872
11.590719
34.636855
99.856853
190.158486
359.217525
512.084961
705.696940
819.661617
867.321491
826.963782
679.910779
539.328456
331.980586
207.975507
95.251799
47.782660
20.702481
17.577410
26.403666
37.574768
57.187676
75.452924
99.155903
110.871792
118.874907
118.207932
103.887916
89.110732
68.175793
51.941872
32.465458
20.922422
11.540651
7.309914
4.289746
3.334880
3.164411
2.868772
2.829432
3.078580
3.134608
3.187656
3.046989
3.292561
3.054738
2.881885
2.896786
2.866983
2.608895
2.759695
2.340674
2.471805
2.414584
2.520680
2.174973
2.407432
2.276897
2.220869
2.431870
2.270937
2.332926
2.269745
2.219677
2.194643
1.804829
2.108812
##ZVALUE=300
0.183582
0.339746
0.303984
0.263453
0.176430
0.198483
0.350475
0.384450
0.438690
0.413656
0.393987
0.442863
0.434518
0.504851
0.424981
0.516772
0.419617
0.512600
0.440478
0.621676
0.617504
0.411868
0.755787
0.730753
0.816584
0.774860
0.829697
0.883937
0.812411
0.920892
1.145601
1.369715
5.311966
18.515587
64.300895
129.333735
272.277594
418.953896
625.250936
755.714774
853.613615
853.967667
748.882890
619.561672
419.987440
275.471807
139.057636
73.866844
27.726889
15.171766
14.678836
20.875931
35.704970
49.506426
72.313547
87.347627
105.225444
112.376809
110.569596
102.800727
84.119439
68.062544
47.862530
34.564734
19.321442
12.272596
6.678700
4.370809
3.414750
2.686977
2.739429
2.872944
2.865791
2.849698
2.760887
2.820492
2.640486
2.619624
2.308488
2.662539
2.355576
2.376437
2.581477
2.455711
2.233982
2.202988
2.368689
2.271533
2.176762
2.290606
2.176762
1.985431
1.960993
2.125502
2.041459
2.058744
##ZVALUE=305
0.352859
0.389814
0.497699
0.323653
0.339746
0.299811
0.324845
0.350475
0.299811
0.434518
0.358820
0.341535
0.486970
0.455976
0.443459
0.329614
0.414848
0.533462
0.371933
0.565648
0.431538
0.564456
0.616908
0.531673
0.619888
0.653863
0.605583
0.665784
0.888705
0.883937
0.990629
0.908971
1.110435
1.413822
2.378821
12.076497
35.522580
104.038715
190.410614
358.293653
507.563949
699.973702
808.562636
854.849815
811.098814
647.130013
507.847667
324.879885
204.806924
92.829466
47.243834
17.034411
11.081696
13.700724
19.581914
33.357739
47.679543
67.790747
82.760453
98.943710
104.979873
104.006529
97.556710
81.472993
66.158772
44.107437
31.425953
18.443465
11.652708
6.264448
4.203916
3.153682
2.840757
2.728701
2.620816
2.652407
2.469420
2.148747
2.380610
2.528429
2.183914
2.308488
2.376437
2.266765
2.260804
2.052784
2.273917
2.075434
2.028942
2.255440
2.244711
2.047420
2.042651
1.922846
1.804829
2.095699
##ZVALUE=310
0.432730
0.158548
0.205636
0.430942
0.410676
0.286698
0.348687
0.286698
0.404716
0.319481
0.256896
0.306964
0.327826
0.233650
0.422597
0.376701
0.348687
0.462532
0.437498
0.463724
0.434518
0.527501
0.413656
0.408888
0.544786
0.444651
0.418425
0.534654
0.685453
0.668764
0.728965
0.923872
0.717640
0.848770
0.891685
1.152754
1.559854
4.022717
21.269917
53.749681
136.870742
241.132379
431.404710
580.985546
762.456656
840.572715
844.720006
769.342780
605.198741
448.514819
259.056687
154.863596
66.847801
30.843616
11.414886
8.806586
12.349486
17.411709
28.703809
40.863752
60.288906
74.755549
89.474916
98.896623
100.331903
93.665719
79.978704
66.034794
44.110417
31.117797
18.135905
11.584759
6.634593
4.531741
3.149509
2.696514
2.375841
2.297759
2.219677
1.926422
2.089739
2.234578
2.046824
2.223849
2.110600
2.051592
2.007484
2.076626
2.078414
2.029538
2.099872
1.939535
2.038479
1.810789
1.954436
1.971722
##ZVALUE=315
0.296831
0.412464
0.321865
0.222921
0.193715
0.429749
0.377893
0.286698
0.410676
0.280738
0.317693
0.397563
0.369549
0.277758
0.359416
0.338554
0.403523
0.206828
0.408888
0.483990
0.397563
0.472665
0.479817
0.501871
0.513792
0.431538
0.476837
0.437498
0.533462
0.408888
0.549555
0.635982
0.795722
0.618696
0.893474
0.858903
0.852942
1.088977
1.165867
2.326965
9.230971
38.226843
85.946918
198.267698
328.680873
538.119674
675.600767
807.805657
845.690966
796.405673
686.002970
497.016907
354.929566
190.859437
104.561448
38.855672
17.361641
7.932782
7.318854
10.951757
15.724897
26.348829
37.709475
54.847598
69.480538
86.269975
92.422962
93.133450
88.181496
73.199868
60.110688
43.402910
31.021833
18.061996
11.343956
6.237626
4.183650
2.867579
2.404451
2.082586
2.161860
2.018809
2.019405
2.107620
1.766682
1.917481
2.077818
2.042651
2.069473
1.883507
1.954436
1.968741
1.925826
1.855493
1.850724
2.028942
##ZVALUE=320
0.263453
0.268817
0.295639
0.327826
0.261664
0.254512
0.266433
0.216961
0.185966
0.296831
0.183582
0.300407
0.210404
0.341535
0.278950
0.310540
0.325441
0.416636
0.359416
0.368953
0.479817
0.255704
0.412464
0.397563
0.396967
0.491738
0.441670
0.444651
0.415444
0.419617
0.320673
0.473857
0.576973
0.496507
0.611544
0.618696
0.692606
0.840425
0.857711
0.971556
1.239777
1.530647
3.958941
20.642877
54.592490
146.159530
246.472955
417.084694
566.416979
739.156604
816.211700
818.905830
747.614503
581.091642
432.441831
243.717432
141.000748
59.887767
27.648807
9.695888
6.220937
6.841421
8.622408
14.249682
21.832585
35.814643
47.988892
65.521598
78.004599
86.668730
88.796616
82.587004
72.796941
55.777431
42.873621
27.087927
18.513799
10.450482
6.644726
3.571510
2.832413
2.159476
2.102852
2.060533
2.027750
1.719594
1.928806
1.972914
1.905560
1.936555
1.761913
1.953840
1.898408
1.770854
1.952648
1.917481
##ZVALUE=325
0.095963
0.075698
0.076890
0.185966
0.070930
0.079870
0.122786
-0.109673
0.062585
0.124574
0.313520
0.242591
0.098944
0.106692
0.127554
0.086427
-0.014901
0.215769
0.091791
0.198483
0.096560
0.325441
0.420809
0.321865
0.242591
0.233650
0.255704
0.366569
0.290871
0.329614
0.508428
0.365973
0.364780
0.222921
0.502467
0.562668
0.497699
0.395775
0.513792
0.608563
0.690818
0.814795
0.865459
1.133680
1.882911
13.046861
35.880804
96.194744
177.239776
344.910622
487.005711
670.398474
772.664547
818.607807
772.760510
623.637438
477.260947
296.482444
180.628896
80.707669
38.967729
12.941957
6.495714
5.246997
5.827546
8.388758
12.670755
21.461844
32.445788
49.152970
61.691999
74.766874
81.810951
82.880855
77.245831
65.169930
53.020716
37.102699
26.613474
15.322566
9.525418
4.767776
3.406405
2.448559
2.185702
1.988411
1.787543
1.652837
1.684427
1.767874
1.822710
1.597404
1.588464
1.601577
1.537800
1.769662
##ZVALUE=330
0.064969
0.107884
0.180602
0.153780
0.206828
0.110865
0.091791
0.141859
0.074506
0.197887
0.216961
0.007749
0.001788
0.108480
0.082850
0.154972
0.082850
-0.081658
0.170469
0.390410
0.289679
0.190735
-0.003576
0.425577
0.301600
0.297427
0.166893
0.353456
0.416636
0.280738
0.255704
0.440478
0.384450
0.432730
0.399947
0.382662
0.484586
0.364780
0.552535
0.665784
0.575781
0.693798
0.772476
0.562668
0.904799
0.904799
1.326799
5.404949
18.536448
64.419508
126.766562
261.479616
389.191508
580.663681
704.120994
797.476768
786.229968
677.053928
550.510883
360.395908
235.181451
112.226009
55.899620
20.321608
8.403659
4.964471
5.044937
5.487800
7.522702
12.990832
19.656420
30.632615
42.685866
58.763623
68.686604
76.563954
76.381564
71.728826
62.811971
47.503710
36.363602
23.170710
15.868545
9.203553
6.175637
3.773570
2.715588
2.015829
2.072453
1.689792
1.680851
1.645684
1.566410
1.533628
1.498461
1.477599
##ZVALUE=335
0.128746
0.309944
0.259876
0.220537
0.075698
0.259876
0.318885
0.209808
0.315905
0.207424
0.303984
0.300407
0.134706
0.245571
0.250936
0.336766
0.297427
0.219941
0.307560
0.324845
0.293851
0.397563
0.286698
0.287890
0.317693
0.310540
0.325441
0.415444
0.353456
0.499487
0.492930
0.434518
0.458956
0.501871
0.411868
0.472665
0.329614
0.534654
0.726581
0.520945
0.620484
0.528693
0.623465
0.617504
0.738502
0.812411
0.942945
1.127720
1.112819
2.696514
9.856820
39.172769
84.428787
192.594528
315.024853
505.376458
636.023879
753.602982
778.401494
711.801648
604.067445
419.857502
288.925767
151.865482
81.338882
29.812455
11.959672
5.414486
4.740953
4.705787
5.206466
7.521510
11.073947
19.505620
28.289557
42.575598
52.928925
64.225793
70.295930
71.380734
67.770481
57.152510
47.621727
33.490658
25.030971
15.649796
10.282993
5.816817
4.086494
2.683997
2.168417
1.805425
1.667738
1.755953
1.713634
1.817942
##ZVALUE=340
0.169873
0.259876
0.226498
0.319481
0.098944
0.215769
0.276566
0.232458
0.265837
0.171661
0.266433
0.257492
0.251532
0.157952
0.147820
0.281930
0.253916
0.214577
0.292659
0.280738
0.455976
0.228882
0.371933
0.311732
0.349879
0.312924
0.336766
0.483990
0.474453
0.404716
0.310540
0.318885
0.419617
0.464916
0.291467
0.260472
0.407696
0.511408
0.361800
0.438690
0.592470
0.639558
0.602603
0.534654
0.658631
0.613928
0.645518
0.541806
0.791550
0.768900
0.762939
1.138449
5.210638
19.097924
65.745711
131.653547
275.497437
401.685834
575.758815
683.489442
756.411552
741.029978
628.189445
504.294634
320.051908
202.781558
95.287561
46.561956
13.816953
6.606579
4.809499
4.448891
4.479885
5.059838
7.389784
10.771751
18.243790
26.486516
39.663911
50.235987
61.524510
66.356659
67.005754
63.854456
54.811835
45.723915
33.137798
24.993420
15.491843
9.950995
5.951524
3.914833
2.382994
1.978874
1.855493
1.806617
##ZVALUE=345
-0.038743
0.039935
0.176430
0.124574
0.116825
0.043511
-0.070930
0.067949
0.194907
0.040531
0.121593
0.116825
0.203848
0.104904
0.109673
0.110865
0.069737
0.188947
0.137687
0.113845
0.117421
0.103712
0.184774
0.164509
0.132918
0.227690
0.124574
0.367761
0.119805
0.142455
0.092983
0.119805
0.201464
0.183582
0.249743
0.307560
0.427961
0.427961
0.290871
0.261664
0.405908
0.292659
0.334978
0.256896
0.486970
0.486970
0.461936
0.192523
0.366569
0.572801
0.693798
0.817776
0.763535
0.933409
1.946688
12.327433
36.121607
101.269484
183.646679
341.062546
476.424694
640.919805
724.347830
745.985508
684.816837
533.163548
400.244594
238.021612
135.228634
53.603649
24.280548
8.666515
5.182624
4.372597
4.036427
4.014969
4.325509
6.233454
8.891821
16.546845
24.032593
36.181808
44.341683
54.539442
59.353709
61.690807
59.449673
51.735640
44.278502
33.312440
24.524927
15.409589
10.048747
5.935431
3.864765
2.409816
##ZVALUE=350
0.202656
0.249743
0.223517
0.250936
0.325441
0.239611
0.164509
0.103712
0.190735
0.396967
0.237823
0.330806
0.289679
0.249743
0.298619
0.275970
0.352859
0.290871
0.229478
0.190735
0.322461
0.193715
0.450611
0.293851
0.169873
0.374913
0.275970
0.397563
0.386834
0.387430
0.335574
0.272989
0.238419
0.348687
0.371933
0.464916
0.377893
0.304580
0.438690
0.404716
0.406504
0.343919
0.433922
0.456572
0.523925
0.534654
0.574589
0.740886
0.743866
0.652671
0.679493
0.660419
0.603795
0.700951
0.803471
1.105666
1.467466
6.161928
19.644499
66.137910
128.212571
265.428424
396.381617
575.144887
688.923001
755.375624
724.491477
598.360896
459.989905
275.935531
171.555877
80.556870
37.278533
11.094809
5.658865
4.486442
3.899932
3.672838
3.594756
4.112720
5.573630
9.200573
13.910532
21.558404
29.323697
40.291548
48.000813
54.018497
56.502819
54.780841
49.583912
40.308833
32.641888
22.375584
15.972853
9.753704
##ZVALUE=355
0.166893
0.348687
0.141859
0.175834
0.173450
0.394583
0.236630
0.295639
0.275970
0.218749
0.351667
0.163913
0.247955
0.263453
0.196695
0.325441
0.277758
0.155568
0.096560
0.294447
0.276566
0.272989
0.246763
0.332594
0.259876
0.403523
0.264645
0.311732
0.344515
0.261664
0.269413
0.347495
0.369549
0.299811
0.333786
0.319481
0.337958
0.160933
0.239611
0.329614
0.391603
0.479817
0.491738
0.422597
0.491738
0.425577
0.536442
0.566840
0.428557
0.494719
0.566840
0.547767
0.614524
0.673532
0.813603
0.888705
0.865459
0.979900
1.159906
2.178550
12.738705
35.811663
98.074675
179.103017
341.987014
485.318899
655.646920
739.760995
740.296841
654.901862
481.621623
351.422429
198.150873
110.241771
43.496490
19.141436
6.399751
4.301667
3.782511
3.412962
3.276467
3.312826
3.815889
4.724860
7.496476
11.513829
18.618703
25.561452
35.720468
42.731762
49.075484
51.646829
50.094724
46.432614
37.801862
31.301975
##ZVALUE=360
0.550747
0.427961
0.310540
0.594854
0.335574
0.476837
0.418425
0.474453
0.505447
0.423789
0.366569
0.471473
0.275970
0.364780
0.379682
0.394583
0.561476
0.265837
0.360608
0.355840
0.449419
0.396967
0.336766
0.446439
0.332594
0.290871
0.165701
0.418425
0.374913
0.450611
0.435710
0.572801
0.576973
0.635982
0.627637
0.456572
0.522733
0.643730
0.544786
0.637770
0.556707
0.533462
0.520945
0.526905
0.552535
0.507832
0.703931
0.682473
0.555515
0.741482
0.811815
0.637770
0.833869
0.765920
0.764728
0.811815
0.657439
1.007915
0.988841
1.165867
1.174808
1.491904
5.847812
18.136501
63.289404
125.787854
260.740519
402.875543
604.220629
713.198781
757.460594
711.370707
568.741560
426.293015
253.388882
151.157975
65.863729
29.016733
8.772612
4.925728
4.013777
3.536940
3.521442
3.391504
3.019571
3.360510
4.295707
5.907416
9.683967
14.165640
21.633506
28.927922
37.451982
42.871833
46.316981
46.345592
##ZVALUE=365
0.198483
0.190735
0.211596
0.180602
0.217557
0.200868
0.119805
0.232458
0.209808
0.360608
0.256896
0.259876
0.353456
0.411868
0.372529
0.228882
0.270605
0.324845
0.300407
0.185966
0.309944
0.299811
0.115633
0.261664
0.358820
0.262856
0.321865
0.359416
0.501871
0.361800
0.425577
0.435710
0.356436
0.627637
0.292659
0.380874
0.315905
0.387430
0.467896
0.255704
0.502467
0.374913
0.457764
0.305772
0.389814
0.548959
0.392795
0.425577
0.528693
0.526905
0.440478
0.606775
0.525713
0.593662
0.389814
0.652671
0.697970
0.732541
0.803471
0.717640
1.036525
0.867844
1.095533
1.397729
2.231598
11.401772
33.048987
98.729730
189.027786
358.738899
511.850715
683.130622
759.642720
745.161772
649.753809
464.783907
325.414538
176.636577
97.085834
37.238598
15.457869
5.216599
4.271865
3.483891
3.474951
2.911687
2.939701
2.777576
2.689958
3.634691
4.711747
8.079410
11.446476
17.590523
23.689866
31.323433
##ZVALUE=370
0.146627
0.203848
0.308752
0.222921
0.381470
0.165701
0.276566
0.348687
0.117421
0.316501
0.239611
0.267625
0.172853
0.204444
0.331998
0.266433
0.345707
0.362992
0.372529
0.262856
0.254512
0.309944
0.217557
0.234842
0.261664
0.267625
0.212789
0.258684
0.427961
0.345707
0.312924
0.232458
0.288486
0.313520
0.428557
0.443459
0.362992
0.413656
0.270605
0.468493
0.376701
0.369549
0.435710
0.355840
0.370741
0.484586
0.507832
0.517964
0.409484
0.346899
0.387430
0.335574
0.311732
0.464916
0.478625
0.588894
0.532866
0.694990
0.649691
0.673532
0.703931
0.926852
0.858903
0.980496
1.107454
0.978708
1.490712
6.152987
20.600557
69.879889
137.601495
284.987688
442.988873
659.343004
771.012902
797.191858
725.895762
551.414490
396.007895
215.411782
121.424794
48.409700
22.789836
8.252859
4.174709
3.563762
3.135800
2.924800
2.821684
2.526641
2.312660
2.446771
3.137589
4.242659
6.444454
10.418892
##ZVALUE=375
0.323653
0.226498
0.147820
0.209808
0.197887
0.176430
0.192523
0.224710
0.258684
0.250936
0.293851
0.242591
0.148416
0.163913
0.222921
0.178814
0.200868
0.236630
0.179410
0.232458
0.354648
0.338554
0.235438
0.164509
0.301600
0.382662
0.231862
0.288486
0.492930
0.382662
0.328422
0.277758
0.330806
0.382662
0.306964
0.291467
0.310540
0.309944
0.256896
0.380874
0.383854
0.285506
0.381470
0.418425
0.429749
0.430942
0.375509
0.420809
0.477433
0.382662
0.349879
0.326633
0.415444
0.509620
0.381470
0.471473
0.431538
0.512600
0.457764
0.563860
0.466704
0.634789
0.488758
0.677705
0.688434
0.605583
0.726581
0.943542
1.103878
3.122687
10.866523
38.963556
87.554455
208.452940
340.160728
544.883609
678.021908
767.872930
750.885606
615.625978
470.271707
279.683471
172.734857
79.816580
40.758848
13.454556
5.777478
3.415942
3.061891
2.853870
2.749562
2.380610
2.337694
2.329946
2.171993
2.549887
##ZVALUE=380
0.396967
0.407696
0.312924
0.266433
0.291467
0.357628
0.535846
0.335574
0.260472
0.452995
0.405908
0.404716
0.211596
0.403523
0.439882
0.479817
0.188947
0.292659
0.386834
0.398755
0.449419
0.432730
0.481606
0.379682
0.452995
0.559688
0.439882
0.487566
0.546575
0.496507
0.619888
0.466704
0.519753
0.642538
0.555515
0.666976
0.492930
0.458956
0.568628
0.512600
0.557899
0.470877
0.409484
0.455976
0.561476
0.532866
0.697970
0.534654
0.461936
0.572801
0.533462
0.717640
0.531673
0.710487
0.581741
0.534654
0.595450
0.599623
0.565648
0.462532
0.685453
0.731945
0.663996
0.775456
0.794530
0.847578
0.967979
0.702739
0.883937
1.162887
1.317859
1.916885
6.019473
27.927756
65.408945
156.292915
256.860852
414.777994
538.199544
652.642846
666.895509
590.323806
489.677787
338.905454
229.934454
113.700628
59.139729
20.923615
8.879900
3.824830
3.156662
2.918839
2.709627
2.444983
2.511740
2.414584
##ZVALUE=385
0.146627
0.176430
0.135899
0.311732
0.423789
0.232458
0.214577
0.333786
0.121593
0.232458
0.177622
0.284910
0.351667
0.199676
0.242591
0.222921
0.219941
0.366569
0.364780
0.178814
0.270605
0.108480
0.187755
0.218749
0.233650
0.165701
0.271797
0.384450
0.409484
0.400543
0.489950
0.420809
0.470877
0.347495
0.418425
0.364780
0.511408
0.558496
0.612736
0.417829
0.489950
0.391603
0.653863
0.536442
0.530481
0.519753
0.533462
0.468493
0.494719
0.370741
0.500679
0.391603
0.468493
0.318885
0.386834
0.486970
0.499487
0.520945
0.448823
0.560880
0.517964
0.416636
0.451803
0.516772
0.416636
0.594854
0.561476
0.854731
0.620484
0.730753
0.823736
0.995994
1.073480
1.183748
2.655983
15.403628
40.147901
104.431510
187.041759
338.013768
457.338691
583.314896
624.045730
604.767799
538.547635
403.302908
289.637446
161.054730
92.367530
38.713813
15.804768
4.695654
3.112555
2.655983
2.494454
2.439618
##ZVALUE=390
0.269413
0.088811
0.196695
0.091791
0.203848
0.047684
0.154972
0.119805
0.113845
0.216961
0.232458
0.278950
0.155568
0.128746
0.159740
0.153780
0.317693
0.110865
0.273585
0.234842
0.269413
0.251532
0.221729
0.304580
0.359416
0.252724
0.303984
0.319481
0.448823
0.287890
0.667572
0.594854
0.706911
0.728965
0.785589
0.734925
0.800490
0.796914
0.697970
0.711679
0.760555
0.773668
0.656843
0.534654
0.617504
0.521541
0.445843
0.446439
0.495911
0.390410
0.465512
0.475645
0.431538
0.420809
0.468493
0.422597
0.446439
0.232458
0.467896
0.466704
0.377893
0.464916
0.491738
0.459552
0.471473
0.556707
0.532866
0.595450
0.626445
0.684857
0.703931
0.865459
0.862479
0.919700
0.965595
1.152754
1.555681
7.710457
24.714470
77.292919
149.489641
284.888744
394.110680
519.471765
593.341589
623.492599
585.756898
472.582579
363.176465
225.438476
132.238865
55.204630
25.351644
7.508993
3.540516
2.867579
##ZVALUE=395
0.126958
0.283718
0.149608
0.099540
0.101924
0.101924
0.164509
0.099540
0.135899
0.204444
0.116825
0.021458
0.134706
0.176430
0.152588
0.124574
0.055432
-0.009537
0.182986
-0.022650
0.027418
0.234842
0.388622
0.179410
0.130534
0.278950
0.303984
0.351667
0.507832
0.493526
0.639558
0.730753
0.765920
0.705719
0.791550
0.954866
0.806451
0.711679
0.848770
0.758767
0.656843
0.689626
0.613928
0.799894
0.563860
0.593662
0.485778
0.546575
0.534654
0.375509
0.393987
0.414848
0.443459
0.556707
0.504851
0.302792
0.317693
0.386834
0.491738
0.321865
0.303984
0.310540
0.338554
0.383854
0.321865
0.435710
0.333786
0.335574
0.528693
0.703931
0.790954
0.749826
0.703931
0.788569
0.741482
0.707507
0.855923
0.824928
1.033545
4.076958
15.851855
56.123734
108.272433
207.759738
313.653946
465.555787
562.982559
630.222559
623.134971
537.211895
425.826907
269.223452
168.891549
75.115561
36.516786
11.956692
##ZVALUE=400
0.301600
0.329614
0.341535
0.189543
0.095963
0.120997
0.197887
0.263453
0.242591
0.259876
0.110865
0.137687
0.098944
0.076890
0.175834
0.194907
0.254512
0.335574
0.291467
0.067949
0.317693
0.216961
0.230670
0.202656
0.274777
0.398755
0.210404
0.289679
0.501871
0.530481
0.738502
0.600815
0.836849
0.805855
0.794530
0.818968
0.900626
0.943542
0.776649
0.812411
0.793934
0.906587
0.780821
0.597835
0.657439
0.524521
0.555515
0.561476
0.617504
0.433922
0.607967
0.447631
0.574589
0.529885
0.611544
0.392795
0.356436
0.336766
0.350475
0.496507
0.361800
0.361800
0.307560
0.417829
0.483990
0.385642
0.500679
0.600815
0.609756
0.695586
0.751615
0.752807
0.651479
0.582933
0.698566
0.606775
0.560880
0.743866
0.757575
0.860691
0.814795
2.296567
8.241534
31.389594
68.930984
158.631802
254.983902
404.015779
506.803989
596.670508
615.714788
551.042557
462.401509
323.016644
217.741728
112.407804
##END
