##TITLE=FDDW2
##FORMAT=SPECTACLE-ASCII V-1.2
##DATA TYPE=ULTRAVIOLET SPECTRUM
##SECOND TYPE=ULTRAVIOLET SPECTRUM
##DATE=02/01/18
##TIME=14:37:24
##SPECTROMETER/DATA SYSTEM=SPECTACLE
##XUNITS=NM EM
##YUNITS=ENERGY
##YFACTOR=1
##FIRSTX=220
##LASTX=410
##NPOINTS=96
##3DDATA=Equidistant
##ZUNITS=NM EX
##FIRSTZ=210
##LASTZ=400
##ZPOINTS=39
##XYDATA=(Y..Y)
##ZVALUE=210
16.832948
17.196536
13.370514
12.086630
11.462569
9.099841
9.703636
7.401705
6.817579
4.570484
3.559589
3.076792
1.931787
1.833439
1.663566
1.695752
1.904964
2.029538
2.508759
2.321601
2.416968
2.549887
3.249645
3.150702
4.633665
5.721450
10.161996
12.913942
19.900799
22.073984
30.327439
31.926632
34.379959
37.723780
39.107800
41.214824
40.994883
40.461421
40.793419
38.293600
36.658645
35.100579
32.774806
29.651523
26.791692
27.665496
23.754835
21.986961
21.386743
19.833446
17.307997
16.720891
15.928745
15.661716
14.243722
11.763573
11.698604
10.414720
11.828542
10.671616
9.602904
8.902550
8.770823
8.453727
8.743405
8.413792
8.462667
8.484721
9.261966
9.945631
12.027621
12.630820
13.844967
14.283657
15.092492
15.073419
16.023517
17.677546
15.893579
15.185475
13.826489
12.556911
10.633469
9.762645
8.614659
6.325841
5.582571
5.748868
6.209612
6.866455
10.437965
12.960434
18.939972
22.109747
27.905703
36.405921
##ZVALUE=215
44.260621
44.235587
35.007000
26.385784
21.366477
18.698573
17.079711
15.957952
13.935566
13.650656
12.339950
8.835793
6.774664
4.396439
4.100800
2.943873
2.569556
2.581477
2.464652
2.024770
2.922416
3.113747
2.929568
4.195571
5.944967
8.684993
12.327433
16.950965
22.468567
27.179718
32.308698
38.341880
41.123629
45.608878
48.113465
49.571991
46.835542
46.836734
46.704412
47.787428
45.323968
44.153929
36.412477
36.344528
32.544732
29.167533
28.045774
26.171803
25.553703
23.583770
21.603703
21.043420
19.501448
15.794635
15.384555
14.331937
14.340878
12.859702
11.928678
11.274815
10.775924
10.193586
10.456443
8.606911
8.812547
9.607673
9.496808
9.326935
9.091496
9.739995
11.559725
12.325644
12.795925
14.675856
14.256835
14.114976
16.046762
15.484691
15.143752
13.632774
14.638901
11.562705
10.796785
9.436607
7.321835
6.920695
5.664825
4.819632
5.114675
5.841851
5.177855
4.543662
4.765987
7.149577
8.619428
12.641549
##ZVALUE=220
93.114972
91.526508
85.863471
76.757669
64.586997
49.146414
37.634969
29.847622
26.471615
25.233626
26.830435
25.532842
21.842718
18.370748
14.211535
8.879900
8.240938
4.673600
3.388524
2.270937
3.168583
2.899766
3.527999
3.901720
6.669760
9.387732
12.755990
18.478632
26.232600
31.184554
39.491653
47.441721
50.132871
52.362680
58.202744
56.967735
58.076978
55.911541
54.217577
54.302812
49.555898
49.795508
44.285655
40.883422
39.098859
36.131740
30.573606
30.517578
27.718544
25.166869
22.864938
22.413731
19.808412
18.682480
16.836524
17.212629
16.579628
14.690757
13.239980
14.143586
11.724830
11.884570
11.209846
8.545518
10.589957
8.807778
8.698702
9.150505
10.317564
9.746552
10.086894
11.646748
12.351871
13.746619
13.509989
15.195608
14.107823
13.804436
14.053583
12.580752
12.841821
11.310577
9.535551
8.211732
7.573962
5.632639
5.763769
5.867481
4.955530
5.612969
4.571676
4.510880
4.031658
4.882812
4.347563
4.857779
##ZVALUE=225
109.914541
114.895701
139.117837
149.962902
149.035454
133.758783
119.426847
88.334680
64.938664
54.532886
43.329597
39.200783
38.616657
41.110516
39.808750
34.676790
25.849938
21.862984
14.457703
9.627938
6.737709
4.769564
3.875494
5.365610
5.635619
9.782910
11.725426
17.667413
22.359490
29.589534
31.586885
39.951801
42.578578
49.230456
49.569607
50.281882
51.418543
54.024458
52.838922
48.815608
44.936538
45.282841
41.830540
38.410425
38.815737
31.879544
31.862855
27.865767
26.938915
23.412704
21.044612
20.794868
18.953681
18.673539
17.115474
17.764568
14.151931
13.965964
12.937784
13.311505
12.376904
11.243820
10.845661
10.993481
9.292960
9.243488
9.687543
9.947419
9.175539
10.665655
10.335445
10.372996
10.525584
11.119843
11.598468
12.014508
12.472868
12.159944
10.916591
10.187626
10.416508
9.489655
7.530451
7.426739
6.928444
5.740523
5.065799
5.863905
5.390644
4.893541
5.571842
4.761815
4.755855
5.173683
5.329847
5.078912
##ZVALUE=230
71.087480
79.367757
114.485621
165.561438
200.363994
234.849453
239.144564
223.144889
189.941525
163.954496
110.143423
80.882907
63.795447
58.202744
63.523650
64.367652
62.393546
59.229732
53.242445
37.575960
29.908419
18.762946
12.277961
7.766485
5.917549
7.074475
8.758903
11.278987
14.157891
17.559528
21.371841
24.798512
27.127862
30.830503
31.034946
33.263564
35.398602
33.419728
30.333996
31.077862
27.859807
29.083490
28.129816
27.301908
24.366975
24.502873
22.395849
19.248724
20.789504
17.271638
17.525554
15.904903
16.260743
15.057921
13.810992
12.933612
11.938810
12.659431
10.475516
10.943413
10.327697
10.312796
10.179877
10.058880
10.213852
9.556413
9.271502
9.086728
10.103583
9.197593
10.065436
11.226535
11.308789
11.518598
11.791587
10.860562
10.799766
12.247562
11.938810
8.939505
9.731650
8.904934
7.628798
7.708669
6.946921
7.156730
6.714463
6.618500
5.779862
6.281734
5.679727
5.799532
5.265474
5.236864
5.246997
6.309748
##ZVALUE=235
18.183589
20.209551
49.720407
89.256763
162.982941
223.940611
298.531651
357.918739
378.848910
364.592671
307.211876
250.950456
191.638470
128.796697
100.225806
83.320737
85.423589
92.352629
92.727542
93.035698
86.286664
75.173974
53.454638
40.725470
25.402904
17.334819
11.505485
11.563897
10.579824
10.829568
13.907552
14.106631
15.218854
16.024709
17.236471
16.798973
17.409921
18.242598
17.830729
18.654466
16.039610
16.884804
15.938878
16.176701
15.968680
16.179681
15.518665
13.605952
12.751818
12.443662
11.244416
12.137890
11.587739
12.405515
11.485815
10.647774
11.659861
11.416674
10.504723
9.896755
9.772778
9.477735
9.501576
8.891821
9.031892
10.094643
8.815527
10.209680
10.675788
10.849833
11.168718
11.177659
12.043715
12.457967
12.368560
11.487603
12.662411
12.177825
11.916757
10.576844
10.171533
8.555651
8.866787
8.097887
7.744431
7.885695
7.304549
7.623434
7.147789
7.900596
6.804466
6.652474
6.710887
7.053614
5.920529
5.696416
##ZVALUE=240
1.434684
1.344681
4.807711
19.144416
42.132735
91.115832
151.858926
258.428454
346.539617
412.295461
469.741821
466.262698
415.366888
352.426767
257.246494
187.677741
122.315884
98.973513
91.524720
98.082423
108.031631
111.316442
110.702515
98.372698
84.274411
59.785843
47.223568
31.606555
22.174716
15.458465
13.242960
12.221932
13.093948
11.145473
12.284517
12.604594
13.186932
13.177991
13.995767
13.503432
12.275577
12.615919
12.847781
12.553930
12.056828
11.545420
10.716915
12.480617
11.263490
10.248423
10.901690
10.476708
10.230541
10.067821
11.170506
10.493994
9.577870
9.783506
9.343624
8.139610
7.894635
7.992983
8.271933
8.319616
8.276701
7.491708
8.051991
9.359717
7.685423
8.203983
8.932948
9.372830
10.134578
11.491776
11.767745
11.145473
10.539889
11.604428
9.236932
10.529757
10.660887
8.957982
8.581877
9.412766
8.247495
8.193851
6.514788
7.493496
7.259846
7.253885
7.211566
6.981492
6.498694
7.101893
5.093813
5.929470
##ZVALUE=245
0.923872
0.785589
0.812411
1.195669
3.452897
9.484887
32.139421
70.634484
157.370567
237.127542
364.913940
453.432798
516.363978
547.536016
521.670580
428.480506
348.720551
239.933729
170.636773
113.446712
96.478462
93.686581
113.448501
120.261908
127.872825
121.599436
108.042955
95.181465
72.301626
55.773854
43.418407
26.551485
21.686554
17.203689
16.053915
14.899969
15.712976
16.188622
14.995933
14.689565
13.725758
14.246702
13.643503
13.327599
13.919473
12.764931
12.378693
12.387633
11.332631
10.490417
10.729432
10.649562
10.421872
10.078549
8.706450
8.068681
8.875728
8.172989
8.846521
7.656813
6.969571
7.344484
7.028580
7.286668
6.903410
7.449985
7.116795
7.208586
6.840825
7.856488
8.596778
8.369684
8.481741
8.878708
9.532571
8.485913
8.870959
8.031726
8.767843
7.817745
7.931590
7.366538
7.034540
7.187724
6.018877
6.059408
6.475449
6.664991
5.759597
5.833507
5.458593
5.322695
5.517602
5.156994
5.303621
5.679727
##ZVALUE=250
0.593662
0.562668
0.527501
0.631809
1.204610
1.018643
1.626611
5.206466
24.964809
55.808425
132.100582
212.862492
313.577652
453.089476
542.092919
610.132813
599.241853
533.449650
453.826785
312.672853
213.741660
147.495866
98.756552
90.284944
101.143718
117.297769
128.484964
139.628649
133.050680
124.746561
104.749799
84.215999
66.069961
45.232773
36.089420
26.274920
22.546649
19.900799
19.178987
18.595457
19.668937
17.566681
18.111467
17.860532
15.702844
15.193820
14.341474
13.593435
13.256669
12.457967
11.558533
10.450482
11.747479
10.895729
10.092854
9.530783
8.198619
9.368658
8.543730
8.727908
8.195639
7.706881
7.073879
7.500648
6.960630
6.618500
6.302595
6.644726
6.424785
7.004738
7.759929
8.151531
8.509755
8.036494
8.096695
8.358955
7.425547
8.370876
7.530451
6.583929
6.214976
6.973743
5.629659
5.861521
5.876422
5.138516
5.039573
4.993677
5.413890
5.302429
4.608631
4.762411
5.025864
4.638433
4.350543
4.534721
##ZVALUE=255
0.906587
0.866652
0.729561
0.805855
0.876784
0.816584
0.923872
1.065731
1.216531
2.749562
15.923977
40.288568
83.948970
180.653930
284.227729
436.064601
539.342761
638.449788
673.785806
629.767776
544.667840
438.036919
278.279781
180.794597
107.313991
85.720420
87.123513
101.913810
126.586556
139.524937
149.141550
147.628784
136.035681
112.843513
97.422004
69.984794
54.176450
38.985610
31.551719
26.495457
25.156736
23.417473
23.371577
21.507740
20.712614
19.571781
19.392967
18.912554
17.909408
16.749501
14.639497
14.510751
12.608767
12.122989
12.118816
11.440516
10.721684
9.498596
9.608865
8.541942
8.247495
8.555651
7.805824
7.355809
7.018447
6.742477
6.342530
7.089972
6.407499
7.053614
6.602407
6.704926
6.753802
6.904602
7.096529
6.815791
6.281734
6.495714
6.737709
6.490946
5.254745
5.199909
5.317926
4.917979
5.111694
4.455447
4.155636
4.098415
4.537702
4.212856
3.880858
4.286766
4.202724
4.271865
4.067421
4.565716
##ZVALUE=260
0.680685
0.568628
0.834465
0.790954
0.856519
0.597835
0.779629
0.846982
0.889897
1.057982
1.072884
1.808405
6.706715
26.281476
62.585473
138.905644
233.822465
388.802886
504.078865
665.725470
726.657510
730.979443
648.244619
534.572601
356.789827
248.788595
150.798559
103.481412
82.634687
90.161562
115.752816
136.053562
154.878497
163.432956
165.404677
147.837996
130.946636
101.400614
82.972646
60.698986
49.431920
38.176775
31.341910
28.409958
27.195811
25.571585
23.568869
22.432804
21.924973
19.182563
18.318892
17.576814
16.148686
14.270544
14.140606
12.989640
12.263656
11.547804
9.665489
9.769797
9.473562
8.503795
8.629560
7.748604
6.984472
6.876588
6.252527
6.706715
6.599426
5.854964
6.496906
7.067919
7.120967
6.916523
6.131530
6.291866
6.159544
6.171465
5.385876
5.140901
4.672408
4.472733
4.397631
3.696680
4.251599
3.844500
3.833771
3.982782
3.863573
3.606677
3.457665
3.749728
3.653765
3.503561
3.420711
3.642440
##ZVALUE=265
0.471473
0.616908
0.673532
0.520945
0.758767
0.645518
0.633597
0.792742
0.757575
0.645518
0.744462
1.014471
1.106858
1.464486
3.271699
16.306639
39.639473
103.192925
184.371471
343.334675
485.834479
628.122687
758.965611
794.036984
724.233985
622.877479
469.805002
340.490937
201.808810
134.797692
95.653534
86.742640
100.283623
129.907727
151.463747
170.268416
175.809860
167.031884
153.904557
128.625631
108.179450
81.151724
63.009858
46.762824
38.588643
32.553673
28.304458
26.081800
23.989677
23.072958
20.444989
19.261837
18.141866
16.446710
14.931560
13.927817
12.629628
12.412667
11.692643
10.492802
9.840727
9.002686
8.287430
8.343458
7.622838
7.288456
6.246567
6.217957
6.417632
6.755590
6.162524
6.573796
6.191730
6.252527
5.960464
5.939603
5.290508
5.206466
4.857779
5.192757
4.581809
4.443526
4.638433
4.086494
3.981590
3.709793
3.516674
3.336668
3.160834
3.252625
3.316998
3.383756
3.194809
3.281832
3.540516
3.433824
##ZVALUE=270
0.575781
0.617504
0.558496
0.676513
0.780821
0.742674
0.639558
0.622869
0.982881
0.917912
0.957847
0.912547
1.089573
0.915527
1.200438
1.271963
1.634955
7.172823
23.175478
74.778795
143.709779
248.124599
438.475609
594.784617
758.500695
822.111964
808.470845
737.078786
584.132671
447.698832
287.510753
191.391706
111.916661
87.667704
88.946819
106.541514
134.854913
153.668523
171.028972
174.119473
167.598724
154.612660
129.923820
107.283592
77.918768
58.924556
43.378472
35.198927
27.628541
24.463534
21.065474
20.910501
18.634796
17.658472
15.464425
14.458895
13.306737
13.148785
11.802912
11.054873
10.273457
9.240508
8.427501
7.686615
7.956624
7.535815
6.861687
6.515980
6.670952
6.233454
6.124973
5.919933
6.331801
6.278753
5.964637
5.738735
5.434752
4.784465
4.994869
4.499555
4.206896
4.124641
3.678799
3.830791
3.904700
3.389716
3.349781
3.679991
3.281832
3.197789
3.564954
3.260970
3.297925
3.372431
3.290772
2.953410
##ZVALUE=275
0.439882
0.546575
0.610948
0.486970
0.623465
0.634789
0.431538
0.613928
0.482798
0.780821
0.453591
0.764728
0.676513
0.838637
0.773668
0.998974
0.970960
0.994802
1.531839
3.200769
13.239980
37.067533
109.415650
210.098624
392.128825
533.520579
703.904033
810.918808
859.559774
821.778774
728.071928
547.508597
396.232009
223.771930
141.737461
83.412528
69.912672
78.623891
96.816421
123.115778
139.960647
155.556798
162.760615
153.733492
141.267776
114.200711
94.861984
68.502426
53.158998
34.832954
26.952624
20.004511
17.034411
14.723539
13.672709
13.091564
11.171699
10.415912
10.026693
9.014606
9.163618
8.625984
7.697940
6.972551
7.612705
6.236434
6.436706
6.271601
5.887747
6.021857
6.100535
6.067753
5.827546
5.739927
5.545616
5.094409
5.477667
5.114675
4.620552
4.592538
4.194975
4.011989
3.760457
3.908873
3.783703
3.859997
3.127456
3.495812
3.274679
2.960563
2.846718
2.924800
3.015995
3.081560
3.226995
2.952814
##ZVALUE=280
0.587702
0.697970
0.681877
0.635982
0.672936
0.637770
0.733733
0.758767
0.680685
0.840425
0.859499
0.789762
0.800490
0.995994
0.969768
1.004934
0.869632
0.955462
0.995994
0.944734
1.567602
2.001524
8.172989
26.542544
84.964633
159.687996
303.352475
446.170568
651.969910
773.995519
865.858793
858.340859
781.085491
600.296855
449.999571
262.430906
162.714720
82.866549
53.895712
49.783587
61.406493
86.457729
105.058551
129.111409
140.642524
147.092938
140.016675
124.428868
106.157660
80.249906
60.290694
40.746927
29.179454
18.381476
13.853908
10.434985
9.357929
8.304715
8.041859
8.085966
7.694960
6.842613
7.161498
6.406903
6.394982
5.804896
5.837679
5.814433
5.580783
5.433559
5.461574
5.414486
5.438924
5.677938
5.543828
5.221963
5.044937
4.844666
4.653931
4.503727
4.321933
4.048944
3.910661
3.929734
3.690720
3.542900
3.745556
3.486872
3.330708
3.084540
3.026724
3.488660
2.952814
2.916455
2.939701
3.152490
##ZVALUE=285
0.514984
0.390410
0.474453
0.519753
0.338554
0.531673
0.350475
0.554919
0.487566
0.332594
0.505447
0.523925
0.558496
0.601411
0.741482
0.622869
0.610948
0.556707
0.628829
0.796914
1.011491
1.008511
1.287460
1.478791
3.751516
13.011694
46.973825
98.653436
215.575695
346.310735
496.027470
696.020722
811.501741
877.661705
835.314989
690.510869
542.251468
338.642001
210.410953
103.465915
57.208538
32.718778
34.483671
50.837994
68.830848
95.913410
113.567710
128.172636
134.357810
131.694674
119.631886
98.491907
79.642534
54.478645
38.168430
23.242831
14.501810
9.170771
7.245541
6.430745
5.950928
5.555749
5.609989
4.792809
4.779696
4.759431
4.751682
4.828572
4.894733
4.807711
4.881620
4.803538
4.571676
4.949570
4.439950
4.338622
4.444718
3.896952
4.395843
4.200935
3.627539
3.991723
3.615618
3.427863
3.629923
3.212690
3.135800
3.130436
3.153682
3.254414
2.919436
2.891421
2.909899
2.572536
2.631545
2.791882
##ZVALUE=290
0.462532
0.223517
0.318885
0.423789
0.429749
0.419617
0.544786
0.468493
0.260472
0.510812
0.408888
0.550747
0.565648
0.587702
0.532866
0.726581
0.530481
0.668764
0.690818
0.589490
0.688434
0.656843
1.074672
0.784993
1.179576
1.122952
1.791716
5.432963
26.191473
62.300563
150.769949
261.666775
409.587622
624.900460
761.466622
871.422887
874.973536
763.632655
634.585023
427.691936
283.431411
142.967701
75.573921
31.543970
23.478866
30.751824
43.377876
65.224767
81.941485
105.891824
119.910836
127.780437
126.392841
113.433003
97.492933
72.349906
54.032803
33.502579
22.089481
12.263656
8.699894
5.579591
5.017519
4.745722
4.385710
4.174709
4.205704
4.269481
4.307628
4.492998
4.363656
4.663467
4.640818
4.428625
4.565716
4.095435
4.112720
4.409552
3.805757
3.818870
3.779531
3.724694
3.424883
3.804564
3.541708
3.176928
3.401637
3.258586
2.920628
3.004670
3.028512
2.976656
2.961755
2.921820
2.699494
2.652407
##ZVALUE=295
0.426769
0.449419
0.386834
0.356436
0.287890
0.477433
0.385642
0.346899
0.379682
0.351667
0.469685
0.518560
0.547767
0.413656
0.410676
0.485778
0.705719
0.522733
0.439882
0.641942
0.653863
0.630617
0.695586
0.697970
0.718832
0.713468
0.987649
1.217723
1.365542
2.444983
8.379817
36.774874
86.787939
207.306743
339.434743
546.462536
697.986484
831.251740
872.325897
813.824534
701.245666
504.967570
354.705453
189.174414
103.083849
40.879846
22.500753
18.722415
24.752617
40.809512
56.165457
80.508590
96.617937
114.180446
119.787455
118.101835
108.247995
88.671446
71.113706
48.329830
34.879446
19.714832
13.288856
7.644892
5.292892
4.137754
3.815889
3.454685
3.517866
3.973842
3.816485
3.987551
4.435778
3.995895
3.902912
4.066825
3.846884
3.566742
3.338456
3.453493
3.428459
3.140569
3.224611
3.114939
3.393888
3.184676
3.178716
2.858639
2.792478
3.133416
2.982616
2.847910
2.933741
2.651811
2.833605
2.762675
##ZVALUE=300
0.373721
0.419617
0.424981
0.444651
0.347495
0.266433
0.316501
0.392795
0.291467
0.367761
0.376701
0.289679
0.398755
0.435710
0.455976
0.370741
0.532866
0.452995
0.596642
0.494719
0.576973
0.644922
0.605583
0.671744
0.725985
0.614524
0.789762
0.990629
1.004934
1.105666
1.276731
1.367927
5.483627
19.435883
67.488551
134.098530
279.559493
424.280763
630.320907
755.125880
856.586695
856.229663
745.275021
614.826679
411.800742
268.184543
136.198997
74.425936
29.397607
15.679598
15.525818
22.589564
36.552548
50.307512
72.451830
88.577867
105.791688
113.055706
111.846924
104.940534
87.331533
69.127679
49.048662
34.574866
20.461679
13.084412
7.341504
5.330443
4.120469
3.596544
3.570914
3.568530
3.524423
3.845692
3.601909
3.600717
3.481507
3.462434
3.328919
3.312826
3.537536
3.300905
3.057718
3.119707
3.275871
2.989769
3.014803
2.734661
3.162622
3.079772
2.849698
3.018975
2.794862
2.910495
2.640486
2.789497
##ZVALUE=305
0.368953
0.381470
0.245571
0.461936
0.308752
0.233650
0.252724
0.508428
0.328422
0.370741
0.388622
0.533462
0.491738
0.462532
0.513792
0.388622
0.398755
0.419617
0.331998
0.472665
0.391603
0.570416
0.566840
0.712872
0.427961
0.669956
0.603795
0.582933
0.832677
0.707507
0.772476
0.851750
1.107454
1.370907
3.015995
10.316968
43.238997
95.563531
216.949582
343.315005
537.965894
680.761933
818.900466
853.920579
789.389014
674.160719
483.184457
343.538523
185.391903
101.750493
39.870739
18.928647
10.871887
12.822747
21.474957
31.451583
50.772429
65.853596
85.403919
97.971559
106.388927
106.681585
97.554922
84.500909
64.124465
48.542619
31.649470
20.773411
11.481643
7.219911
4.811883
4.099607
3.623962
3.322959
3.181696
3.224611
3.420711
3.217459
3.028512
3.016591
3.193617
3.011823
3.051758
3.045797
3.180504
3.043413
2.882481
3.101826
3.021955
2.904534
2.792478
2.677441
2.739429
2.797842
2.558827
2.652407
##ZVALUE=310
0.298619
0.225902
0.408888
0.294447
0.177622
0.363588
0.269413
0.278950
0.187755
0.399947
0.415444
0.286698
0.346899
0.425577
0.467896
0.516772
0.394583
0.440478
0.393987
0.372529
0.530481
0.361800
0.696778
0.659823
0.741482
0.525713
0.775456
0.662804
0.526905
0.745654
0.662804
0.681877
1.010895
0.954866
0.964999
1.189709
1.303554
5.418658
18.219948
63.029528
127.276778
266.206861
406.594872
612.233877
744.813681
844.228864
838.965774
738.111734
611.778498
414.602757
276.662707
140.141845
74.746609
27.736425
12.864470
8.811951
11.429787
18.864870
26.972890
43.215752
58.212876
79.060793
90.567470
99.629760
101.001859
92.445612
81.505775
63.222647
48.013926
30.282736
21.123886
11.916757
7.963777
5.006790
3.969669
3.249645
3.257990
2.867579
3.136992
2.987981
3.136992
2.939701
2.797842
3.035665
2.704859
2.832413
2.854466
2.974868
3.099442
3.009439
2.989769
3.064871
2.777576
2.672672
2.666712
2.794862
##ZVALUE=315
0.136495
0.190735
0.285506
0.351667
0.447631
0.456572
0.381470
0.324845
0.455976
0.236630
0.510812
0.412464
0.393987
0.342727
0.246763
0.322461
0.376701
0.431538
0.322461
0.408888
0.419617
0.396967
0.458956
0.392795
0.469685
0.448823
0.531673
0.484586
0.607967
0.689626
0.514984
0.709891
0.775456
0.890493
0.957847
0.998974
0.819564
1.177788
1.172423
2.467632
8.922815
38.830638
89.399815
206.683874
332.720876
535.604954
671.708584
808.798671
841.845870
785.239935
674.802661
491.706729
349.280834
187.729001
103.749633
39.001703
16.564727
7.462502
7.764697
10.736585
15.609860
26.896000
37.876964
54.905415
70.035458
86.628795
93.856454
95.140934
89.373589
74.828863
60.725808
43.014884
30.777454
18.020868
11.727810
7.138848
5.011559
3.501773
3.215671
3.016591
2.809763
2.732873
2.947450
2.858639
2.809763
2.837777
2.749562
2.780557
2.713799
2.714992
2.860427
2.740622
2.564788
2.652407
2.573729
2.616644
##ZVALUE=320
0.441670
0.412464
0.410676
0.401735
0.403523
0.571609
0.342727
0.429749
0.374913
0.371933
0.471473
0.525713
0.534654
0.528693
0.509620
0.466704
0.380874
0.369549
0.485778
0.417829
0.450611
0.625849
0.354648
0.584722
0.549555
0.610948
0.491738
0.566840
0.865459
0.843406
0.591874
0.711679
0.600815
0.908971
0.780821
0.902414
0.771880
1.063943
1.133680
0.984669
1.345873
1.552701
4.102588
21.374822
55.829883
149.141550
249.006748
415.825844
559.452772
735.773444
809.921026
807.320476
736.230612
571.913719
419.873595
237.972736
136.147738
57.619810
26.889443
9.853840
6.673932
7.558465
8.994937
14.868975
21.937490
36.372542
49.443841
66.536665
78.727603
88.806748
89.724660
83.989501
74.322820
56.806803
43.670535
27.304888
19.217730
11.173487
7.351637
4.637837
3.634691
2.928972
2.968907
2.902746
2.801418
2.686977
2.978444
2.777576
2.967715
2.919436
2.866983
2.701879
2.968907
2.767444
2.794862
2.558827
##ZVALUE=325
0.127554
0.180602
0.272989
0.195503
0.144839
0.243783
0.277758
0.467896
0.325441
0.357628
0.297427
0.300407
0.293851
0.371933
0.396967
0.264645
0.153780
0.393987
0.257492
0.323653
0.282526
0.305772
0.276566
0.198483
0.417829
0.225902
0.300407
0.567436
0.397563
0.469685
0.441670
0.392795
0.452995
0.675917
0.580549
0.673532
0.635982
0.634789
0.694990
0.731945
0.854731
0.815988
0.940561
1.236796
2.067685
13.257861
36.365986
98.515749
180.425644
342.930555
488.182902
666.200519
764.383674
808.508992
763.880610
611.683726
470.230579
290.775895
177.356005
79.224706
37.798882
12.624860
6.847978
5.686879
6.252527
9.033680
13.531446
22.079945
33.253431
49.453974
61.608553
75.126886
82.255602
83.342791
78.584552
66.268444
54.869652
38.304925
27.022958
16.340613
10.236502
6.022453
4.444718
3.394485
2.927780
2.665520
2.638698
2.443790
2.576709
2.636909
2.546906
2.332926
2.475977
2.536774
2.458692
2.780557
##ZVALUE=330
0.179410
0.230670
0.203848
0.224710
0.288486
0.334978
0.269413
0.233650
0.291467
0.268817
0.430942
0.277758
0.193715
0.198483
0.368953
0.480413
0.434518
0.379682
0.326633
0.324845
0.322461
0.266433
0.271797
0.195503
0.439882
0.270605
0.394583
0.377893
0.364780
0.448823
0.389814
0.507832
0.505447
0.556707
0.522733
0.464916
0.707507
0.641942
0.720620
0.627637
0.645518
0.673532
0.720620
0.734925
0.937581
0.990629
1.472831
4.474521
23.781657
56.608915
142.164826
241.039991
418.507457
556.106567
712.690949
778.439641
764.428973
679.217577
517.567992
379.848480
213.323832
120.523572
47.438741
21.887422
8.048415
5.594492
5.273819
5.800724
8.426905
12.597442
21.777749
30.896664
45.411587
57.072639
70.930719
76.016784
77.684522
72.751641
61.344504
51.011443
35.521984
26.228428
16.339421
11.078715
6.576777
4.628897
3.557801
3.016591
2.807975
2.617836
2.546906
2.494454
2.586842
2.460480
2.549887
2.387762
##ZVALUE=335
0.264645
0.252724
0.244975
0.141859
0.182986
0.182986
0.286698
0.216961
0.249743
0.191927
0.259876
0.406504
0.349879
0.297427
0.341535
0.435710
0.393987
0.331998
0.386834
0.421405
0.305772
0.242591
0.258684
0.427961
0.329614
0.359416
0.414848
0.406504
0.373721
0.365973
0.452995
0.560880
0.552535
0.448823
0.485778
0.473857
0.594854
0.541806
0.477433
0.506639
0.565648
0.509620
0.673532
0.725985
0.763535
0.769496
0.883937
0.991821
1.120567
2.263784
12.314916
34.268498
98.117590
178.517699
333.604813
476.855636
654.077530
735.684037
763.581991
716.136694
575.950742
439.769626
267.323852
161.525607
69.265962
32.320619
10.694861
5.934834
4.637837
4.542470
5.983710
7.572770
12.463927
18.433928
29.925704
40.528774
54.583549
64.487457
72.234869
72.527528
67.749619
59.516430
47.052503
37.260652
24.869442
17.498732
10.508895
7.160902
4.394650
3.580451
2.784729
2.694726
2.385974
2.368689
2.328753
2.223849
##ZVALUE=340
0.132918
0.247955
0.234842
0.136495
0.002980
-0.039935
0.057817
0.233650
-0.005960
0.057817
0.226498
0.192523
0.234842
0.166893
0.073910
0.077486
0.220537
0.040531
0.266433
0.225902
0.015497
0.123978
0.145435
0.073910
0.167489
0.145435
0.138879
0.180602
0.353456
0.245571
0.311732
0.324845
0.362992
0.298619
0.310540
0.179410
0.341535
0.372529
0.346899
0.334978
0.381470
0.463724
0.412464
0.325441
0.515580
0.472665
0.531673
0.605583
0.730753
0.732541
1.125932
1.252890
6.219745
19.857883
66.659451
133.705735
276.587009
401.048660
569.544435
673.581958
741.170645
719.202757
604.788661
483.544469
307.266712
193.724632
89.722872
43.532848
13.422966
6.461740
4.961491
4.546642
4.576445
5.199909
7.417798
10.816455
18.690825
26.722550
40.324926
50.645471
61.784983
66.229701
67.324638
64.038634
55.590868
46.986938
34.277439
25.614500
16.223788
10.762811
6.229877
4.457831
3.173947
2.607703
2.299547
2.264977
##ZVALUE=345
0.274777
0.257492
0.224710
0.101924
0.201464
0.241995
0.232458
0.304580
0.203848
0.170469
0.226498
0.140667
0.221729
0.214577
0.294447
0.266433
0.177622
0.310540
0.288486
0.264645
0.247955
0.443459
0.260472
0.314713
0.338554
0.266433
0.297427
0.329614
0.342727
0.371933
0.251532
0.314713
0.316501
0.531673
0.354648
0.428557
0.523925
0.531673
0.462532
0.568628
0.370741
0.486970
0.385642
0.420809
0.613928
0.491738
0.697970
0.754595
0.751615
0.814795
0.805855
0.873804
0.763535
1.112819
2.137423
12.599826
36.924481
103.161931
182.051659
329.066515
459.463596
619.118810
697.948933
717.609525
660.724640
515.911579
388.907790
231.246948
132.875443
52.136779
23.568869
7.700920
5.325675
4.812479
4.311800
3.939867
4.638433
6.606579
9.864569
16.993880
24.671555
36.767721
46.041608
54.820776
60.882568
62.972903
60.780644
52.866936
44.964552
33.956766
24.820566
16.176701
11.149645
6.434917
4.572868
3.352761
##ZVALUE=350
0.289679
0.344515
0.207424
0.157952
0.161529
0.269413
0.322461
0.457764
0.368953
0.245571
0.135899
0.235438
0.323653
0.122786
0.090599
0.151992
0.233650
0.357628
0.319481
0.224710
0.322461
0.315905
0.284910
0.342727
0.274777
0.451803
0.157952
0.268817
0.448823
0.319481
0.335574
0.268817
0.389814
0.375509
0.235438
0.214577
0.350475
0.352859
0.415444
0.466704
0.469685
0.637770
0.499487
0.653863
0.439882
0.478625
0.632405
0.597835
0.483990
0.524521
0.743866
0.651479
0.765920
0.883937
0.830889
0.990629
1.530647
4.963875
23.607612
55.253506
138.350725
233.334899
393.538475
517.462492
653.972030
700.180531
669.602752
583.031774
409.205556
280.158520
142.715573
79.763532
31.036735
12.598634
5.259514
4.264712
4.036427
3.813505
3.799796
4.164577
6.202459
9.055734
14.502406
20.922422
31.317472
39.652586
49.676895
54.834485
57.066679
55.918694
49.656630
42.419434
31.660795
23.852587
15.718937
11.373758
##ZVALUE=355
0.258684
0.174642
0.406504
0.181794
0.102520
0.197887
0.205636
0.178814
0.390410
0.429749
0.363588
0.320673
0.345707
0.386834
0.288486
0.266433
0.282526
0.348687
0.273585
0.340939
0.315905
0.364780
0.261664
0.221729
0.222921
0.394583
0.175834
0.263453
0.376701
0.311732
0.354648
0.360608
0.289679
0.335574
0.441670
0.416636
0.364780
0.476837
0.398755
0.466704
0.318885
0.374913
0.397563
0.553727
0.457764
0.566840
0.471473
0.572801
0.504851
0.422597
0.536442
0.529885
0.682473
0.798702
0.697970
0.864863
0.933409
0.869632
1.266599
2.946854
10.492802
42.458773
88.688731
191.024542
304.184556
473.323464
582.705736
669.059753
675.010681
585.634708
479.297638
323.604941
206.485987
92.673898
44.911504
14.293790
6.587505
4.289746
3.962517
3.688931
3.513694
3.707409
3.987551
5.329847
7.481575
12.304783
17.928481
26.998520
34.185648
43.256879
48.095584
51.695704
50.630569
45.462847
39.733648
30.940771
##ZVALUE=360
0.302792
0.322461
0.088811
0.181794
0.088811
0.278950
0.156760
0.323653
0.161529
0.168681
0.319481
0.371933
0.319481
0.342727
0.236630
0.345707
0.220537
0.349879
0.190735
0.251532
0.119805
0.178814
0.154972
0.245571
0.500679
0.262856
0.382662
0.442863
0.427961
0.396967
0.315905
0.406504
0.388622
0.341535
0.486970
0.322461
0.245571
0.420809
0.318885
0.463724
0.375509
0.438690
0.572801
0.438690
0.373721
0.366569
0.374913
0.252724
0.575781
0.551939
0.536442
0.598431
0.545979
0.744462
0.629425
0.726581
0.782609
0.821948
0.782609
1.090765
0.995994
1.412630
5.306602
17.832518
61.021447
119.624734
239.443779
358.262658
527.232885
616.524816
660.402775
624.638796
511.502624
394.292474
239.730477
144.851804
63.298941
28.025508
8.695722
4.764795
3.897548
3.672838
3.344417
3.184676
3.160834
3.340840
4.416704
5.821586
9.922981
14.443994
22.055507
28.555989
37.308931
42.636991
46.208501
47.235489
##ZVALUE=365
0.296831
0.417829
0.197887
0.336766
0.224710
0.225902
0.329614
0.141859
0.353456
0.302792
0.229478
0.374913
0.348687
0.152588
0.273585
0.262856
0.268817
0.239611
0.262856
0.146627
0.168681
0.377893
0.225902
0.384450
0.247955
0.284910
0.336766
0.425577
0.271797
0.205636
0.299811
0.439882
0.387430
0.296831
0.499487
0.345707
0.453591
0.318885
0.346899
0.251532
0.288486
0.521541
0.390410
0.344515
0.563860
0.483990
0.375509
0.450611
0.568628
0.522733
0.517964
0.667572
0.581741
0.587702
0.553727
0.613928
0.635982
0.606775
0.707507
0.784993
0.792742
0.875592
1.044869
1.109838
2.732873
9.393692
36.021471
80.483556
187.807679
296.258926
445.354581
550.225973
635.937452
631.237626
551.902652
448.541641
289.662480
182.488561
81.276894
38.792491
12.269616
5.529523
3.969669
3.691912
3.275871
3.114939
2.949834
2.904534
3.139973
3.332496
5.179644
7.704496
12.691617
17.929673
25.790930
31.758547
##ZVALUE=370
0.032783
0.040531
0.232458
0.048876
-0.041723
0.247955
0.079870
0.075698
0.210404
0.186563
0.102520
0.198483
0.153780
0.127554
0.021458
-0.031590
0.158548
-0.034571
0.141859
0.313520
0.199676
0.112653
0.147820
0.248551
0.243783
0.092983
0.130534
-0.013709
0.210404
0.105500
0.084639
0.127554
0.132918
0.347495
0.123978
0.238419
0.164509
0.192523
0.305772
0.121593
0.170469
0.208616
0.126958
0.212789
0.215769
0.188947
0.175834
0.327826
0.260472
0.268817
0.200868
0.176430
0.258684
0.369549
0.386834
0.392795
0.281930
0.447631
0.365973
0.402927
0.537634
0.455976
0.603795
0.689626
0.834465
0.737906
1.170635
5.758405
19.939542
66.817999
126.521587
243.030787
360.044837
513.745546
596.478581
624.674559
581.220984
464.054942
345.757604
197.279453
112.817883
45.284629
21.328926
7.449985
4.157424
3.333688
3.077984
2.763867
2.731681
2.340674
2.364516
2.483726
2.886653
4.477501
6.416440
10.502934
##ZVALUE=375
0.207424
0.242591
0.205636
0.163913
0.252724
0.150800
0.153780
0.210404
0.218749
0.177622
0.192523
0.195503
0.157952
0.328422
0.180602
0.287890
0.312924
0.216961
0.337958
0.352859
0.177622
0.327826
0.377893
0.412464
0.361800
0.381470
0.353456
0.372529
0.426769
0.478625
0.603795
0.390410
0.440478
0.336766
0.432730
0.553727
0.554919
0.523925
0.469685
0.439882
0.466704
0.433922
0.449419
0.497699
0.470877
0.476837
0.460744
0.348687
0.457764
0.491738
0.521541
0.512600
0.349879
0.510812
0.590682
0.504851
0.589490
0.560880
0.514984
0.563860
0.651479
0.659823
0.471473
0.613928
0.488758
0.716448
0.696778
0.878572
1.099706
3.023744
10.375977
37.983656
83.652735
192.051530
298.741460
454.542637
549.996495
615.995526
605.285764
510.288477
402.411819
251.817703
160.676837
79.915524
40.783882
13.453960
5.770922
3.432631
3.111959
2.914667
2.820492
2.635717
2.275705
2.202988
2.361536
2.758503
##ZVALUE=380
0.230670
0.095963
0.130534
0.196695
0.311732
0.229478
0.151992
0.387430
0.181794
0.245571
0.175834
0.206828
0.253916
0.032783
0.195503
0.090599
0.300407
0.296831
0.281930
0.329614
0.322461
0.188947
0.164509
0.133514
0.294447
0.213981
0.474453
0.408888
0.463724
0.609756
0.572801
0.635982
0.609756
0.762939
0.792742
0.863671
0.741482
0.812411
0.853539
0.889897
0.852942
0.776649
0.760555
0.560880
0.661612
0.646710
0.652671
0.574589
0.549555
0.428557
0.433922
0.541806
0.566840
0.511408
0.452995
0.469685
0.606775
0.548959
0.617504
0.483990
0.518560
0.613928
0.628829
0.702739
0.578761
0.748634
0.593662
0.799894
0.858903
0.911951
0.943542
1.756549
5.535483
26.783943
63.176751
150.364637
244.497657
390.595794
500.821471
597.942472
610.481501
540.867448
451.200604
318.416953
216.350555
107.487440
56.056976
20.027757
8.392930
3.727674
3.093481
2.837777
2.617836
2.750754
2.229810
2.270937
##ZVALUE=385
0.297427
0.030994
0.198483
0.182986
0.201464
0.130534
0.149608
0.278950
0.152588
0.134706
0.253916
0.188947
0.082850
0.263453
0.332594
0.319481
0.205636
0.246763
0.167489
0.158548
0.224710
0.333786
0.370741
0.420809
0.276566
0.449419
0.404716
0.635982
0.717640
0.755787
1.237988
1.086593
1.303554
1.364946
1.463890
1.319647
1.459718
1.359582
1.444817
1.533628
1.215935
1.297593
1.119971
1.005530
1.157522
0.953674
0.919700
0.793934
0.712872
0.899434
0.789762
0.741482
0.783801
0.667572
0.589490
0.503659
0.470877
0.586510
0.694990
0.655651
0.706911
0.596642
0.663996
0.480413
0.609756
0.622869
0.717640
0.633597
0.625849
0.958443
0.829697
0.853539
1.118779
1.284480
2.726912
15.248656
40.191412
104.177594
183.127522
324.014425
436.202884
556.682944
596.473813
575.830936
507.347584
377.116799
274.370909
160.588026
91.234446
34.657717
14.326572
4.376769
2.978444
2.592802
2.545714
2.652407
##ZVALUE=390
0.203848
0.192523
0.062585
0.224710
0.197887
0.250936
0.387430
0.197887
0.227690
0.302792
0.286698
0.406504
0.377893
0.294447
0.238419
0.342727
0.323653
0.210404
0.321865
0.256896
0.226498
0.280738
0.311732
0.304580
0.477433
0.420809
0.745654
0.898838
1.024604
1.320839
1.546741
1.714826
2.078414
2.252460
2.336502
2.402663
2.305508
2.185702
2.273917
2.087951
1.995564
2.074838
1.901984
1.721978
1.430511
1.382828
1.354814
1.282692
1.183748
0.925660
0.937581
1.063943
0.944734
0.772476
0.778437
0.698566
0.816584
0.724792
0.671744
0.732541
0.674725
0.600815
0.724792
0.654459
0.622869
0.552535
0.735521
0.799894
0.747442
0.777841
0.730753
1.001954
0.911951
0.950694
0.900626
0.998974
1.496673
7.586479
24.216771
76.291561
145.145655
274.938941
380.842686
502.151847
570.928454
600.502491
561.118722
450.474620
346.347690
213.263631
124.908686
52.258968
23.824573
6.829500
3.382564
2.860427
##ZVALUE=395
0.349879
0.386834
0.163913
0.114441
0.252724
0.314713
0.263453
0.156760
0.114441
0.289679
0.264645
0.171661
0.345707
0.234842
0.219941
0.103712
0.137687
0.178814
0.141859
0.114441
0.341535
0.175834
0.275970
0.256896
0.573993
0.680685
0.888705
0.921488
1.385808
1.742840
1.956820
2.448559
2.653599
2.876520
3.278852
2.960563
2.875924
3.030896
3.042817
2.892613
2.620816
2.592802
2.442598
2.425909
2.205968
1.939535
1.772642
1.644492
1.605749
1.454949
1.476407
1.342893
1.189709
1.094937
1.067519
0.863671
0.876784
0.887513
0.814795
0.830889
0.597835
0.627637
0.737906
0.610948
0.702739
0.480413
0.588894
0.587702
0.664592
0.795722
0.778437
0.784993
0.935793
0.908971
0.844598
0.750422
0.884533
0.923872
1.149774
4.237890
15.170574
53.855777
104.834437
201.346874
302.621722
449.937582
543.445945
604.721904
597.774982
510.555506
405.327678
256.862640
162.757635
72.930455
35.492778
12.070537
##ZVALUE=400
0.383854
0.528693
0.349879
0.359416
0.199676
0.223517
0.340939
0.424981
0.348687
0.199676
0.285506
0.310540
0.234842
0.328422
0.191927
0.193715
0.232458
0.277758
0.354648
0.244975
0.273585
0.201464
0.342727
0.300407
0.494719
0.537634
0.846982
1.091957
1.498461
1.708865
2.303720
2.619624
3.014803
3.211498
3.309846
3.223419
3.200769
3.242493
3.209710
3.045797
2.762675
2.838969
2.665520
2.512932
2.375841
1.981854
2.005696
1.860857
1.776814
1.605749
1.443624
1.444817
1.150966
1.349449
1.135468
1.013875
1.018643
0.963807
0.872612
0.915527
0.846982
0.694990
0.686646
0.739694
0.757575
0.779629
0.684857
0.734925
0.855923
0.700951
0.791550
0.998974
0.738502
0.837445
0.808835
0.812411
0.747442
0.829697
0.716448
0.934601
1.080632
2.416968
8.176565
30.230880
66.712499
151.959658
245.874524
388.453007
485.570431
572.614670
589.398742
529.699922
440.681577
295.576453
196.879506
99.899769
##END
