##TITLE=
##FORMAT=SPECTACLE-ASCII V-1.2
##DATA TYPE=ULTRAVIOLET SPECTRUM
##SECOND TYPE=ULTRAVIOLET SPECTRUM
##DATE=09/27/17
##TIME=13:35:11
##SPECTROMETER/DATA SYSTEM=SPECTACLE
##XUNITS=NM EM
##YUNITS=ENERGY
##YFACTOR=1
##FIRSTX=220
##LASTX=410
##NPOINTS=96
##3DDATA=Equidistant
##ZUNITS=NM EX
##FIRSTZ=210
##LASTZ=400
##ZPOINTS=39
##XYDATA=(Y..Y)
##ZVALUE=210
4.360676
4.391670
3.876686
4.114509
4.029870
4.268885
4.285574
4.135966
3.551841
3.659725
3.140569
3.339648
3.360510
3.387928
3.934503
3.912449
3.116727
4.112720
4.132986
4.365444
4.704595
4.647970
5.086660
5.499721
4.832745
5.360842
4.933476
5.702972
6.098747
6.569624
6.080866
5.811453
7.322431
6.996989
5.947948
7.879734
6.997585
7.308722
7.813573
6.755590
7.036924
7.341504
7.459521
7.704496
7.949471
7.668734
7.387996
8.008480
7.426739
7.655621
7.920861
8.919835
8.140802
8.074641
8.114576
9.064674
8.750558
8.268952
8.656979
8.504987
8.278489
9.192824
7.942915
9.552836
9.317994
9.482503
8.854866
10.731816
11.919737
13.287663
15.159845
16.828775
19.994974
21.044612
22.676587
24.530888
24.957657
24.266839
23.577809
22.455454
18.692613
17.358661
15.250444
13.628602
12.090802
9.676814
9.238720
9.040833
7.389784
7.754564
9.185672
8.854866
8.333921
8.466840
9.115934
8.711815
##ZVALUE=215
11.902452
11.665821
10.343790
9.278655
7.721782
7.444620
7.207990
6.884933
7.317662
7.759929
6.194711
7.261634
5.422831
5.111694
4.718900
4.188418
3.950000
4.546642
4.196763
4.326701
4.733801
4.843473
4.769564
5.042553
5.885959
5.424619
5.840659
6.224513
6.061792
6.441474
6.675720
5.985498
6.783605
7.495880
7.040501
7.873774
8.290410
6.894469
7.553697
7.587671
7.127523
8.010864
8.339882
8.188486
7.455945
7.517934
7.979870
7.596612
8.010864
8.782744
8.221865
9.511709
9.539723
8.879900
9.124875
8.575916
8.498430
9.386539
9.721518
10.120869
9.273887
9.215474
9.266734
9.666681
9.865761
10.772943
10.093451
11.363626
12.877584
14.487505
15.458465
18.188953
18.785000
21.741986
21.116734
23.347735
22.192597
21.620989
21.608472
19.321442
16.834736
15.422702
14.513731
13.778806
11.928678
10.554790
8.147955
9.109974
8.216500
8.447766
8.336902
6.702542
8.251667
8.244514
8.046627
7.871985
##ZVALUE=220
35.056472
33.562779
38.277507
38.088560
34.640431
31.113625
22.094846
19.735694
16.166568
14.431477
15.770793
15.878677
14.190674
13.339520
11.822581
8.540750
7.413626
5.712509
5.053878
4.643798
5.130768
4.579425
5.488992
4.967451
5.975962
6.183982
6.017685
6.976724
6.767511
7.112622
7.340908
7.577538
7.314682
8.166432
7.758737
7.270575
7.707477
7.884502
8.575916
9.014606
9.253621
8.335710
8.869767
8.940697
9.036660
10.174513
8.613467
9.594560
10.005832
8.842945
10.291934
10.333657
10.680556
10.443926
11.219978
11.869669
10.549426
12.091994
11.034608
12.383461
10.730624
12.428761
11.050701
11.795759
12.136698
11.058450
12.267828
12.793541
12.382865
15.518665
16.457438
18.474460
20.012856
21.332502
22.432804
23.851991
24.625659
22.660494
21.618605
21.527410
19.768476
17.997622
16.089678
13.912916
12.961626
11.973977
11.911988
9.828806
8.033514
9.450912
9.256601
8.364916
8.681417
8.910894
9.131432
8.774996
##ZVALUE=225
53.100586
54.893494
71.361661
97.900629
104.990602
108.389854
104.084611
82.832575
65.833926
47.820807
33.855438
29.300451
28.190613
30.918717
26.662946
28.829575
24.103522
17.929673
13.182759
9.504557
8.398890
6.083846
5.896688
6.733537
6.974936
7.123947
6.431937
7.012486
6.889701
7.880926
8.983612
7.975698
7.941723
9.044409
8.887649
9.051561
9.046793
9.308457
9.914637
10.169744
9.090900
9.379983
9.937882
11.811852
10.842681
10.468960
11.216998
10.444522
9.902716
10.755658
11.322498
12.331605
12.457967
12.995601
13.727546
13.280511
13.194680
14.627576
13.936758
14.612675
14.302731
14.982820
13.352633
16.623735
14.552474
14.966726
14.641881
16.521811
17.167926
18.257499
19.396544
21.295547
23.757815
24.130940
25.143623
25.150776
25.228858
22.457838
24.123788
20.264983
19.057989
17.320514
15.650988
16.114712
14.435649
13.675690
13.297796
13.319850
11.480451
11.256933
11.495948
10.182858
10.129809
11.138916
10.394454
10.611415
##ZVALUE=230
41.893721
46.094656
73.504448
130.094886
169.416666
224.934816
247.946978
257.623792
235.465765
207.231641
142.398477
101.886988
64.852834
53.767562
49.433708
53.021908
52.926540
50.511956
47.881603
37.278533
30.918717
19.387603
14.215708
10.965466
8.121729
7.074475
7.749796
8.512735
8.702874
8.498430
8.348823
8.566976
9.252429
10.439754
9.735823
10.803938
9.397864
9.687543
10.437965
12.228489
10.720491
10.805726
10.904670
11.480451
10.558963
12.308955
11.505485
11.179447
12.140870
12.771487
13.828874
13.081431
12.771487
13.872981
14.866590
16.424656
16.347766
17.025471
17.888546
18.550754
20.731688
18.570423
19.322634
18.481612
20.423532
20.297766
19.192696
20.937920
22.753477
21.796823
24.854541
25.180578
29.080510
27.868748
30.217767
28.560758
28.695464
28.625727
26.390553
24.211407
22.795796
21.641850
19.542575
19.224882
18.859506
16.994476
16.154647
15.479922
16.286969
14.807582
13.818741
14.722943
14.970899
13.517737
13.188720
15.024543
##ZVALUE=235
12.809634
16.927719
31.880736
85.632801
138.276815
227.371454
307.582617
418.209434
464.983582
478.080511
450.799465
357.867479
273.656845
170.788765
127.641559
94.110966
75.812936
77.702999
84.734559
83.309412
75.428486
68.203807
53.268671
37.935972
24.740696
18.894672
15.208721
11.019707
9.728670
9.791851
10.619760
9.096861
10.248423
10.663867
9.639859
10.190606
10.574460
11.164546
10.972619
11.397600
11.304617
12.269616
11.699796
11.889935
12.592673
11.620522
12.852550
11.793971
12.878776
12.734532
12.987852
15.156865
15.466809
17.917752
18.466711
17.272830
19.192696
20.957589
22.387505
21.577477
20.740628
22.010803
21.609664
24.778843
22.559762
23.800731
25.024414
24.110675
25.334954
27.683973
29.518604
31.983852
33.050776
34.096837
33.503771
35.146475
34.700632
33.513904
30.903816
29.373765
29.434562
26.442409
27.037859
24.454594
22.722483
22.691488
20.446777
21.578670
19.206405
19.069910
17.333627
19.048452
19.082427
18.737912
19.062757
16.183853
##ZVALUE=240
2.927780
2.554655
6.635785
19.612908
44.688582
108.152628
184.941888
334.450603
460.397005
592.997670
732.463598
755.352974
705.349445
611.892939
447.756648
322.647691
193.241835
140.562654
110.245943
106.765628
111.535788
114.778876
117.791891
100.790858
86.877942
67.361593
49.917698
35.388470
24.780631
17.764568
15.081763
12.884736
13.226867
12.319684
11.589527
12.331605
11.804700
11.272430
10.600686
10.993481
11.504889
11.517406
11.085868
11.502504
11.982918
12.680888
14.172792
12.799501
13.126731
13.200641
14.077425
15.451908
15.318990
15.961528
17.902851
18.225908
19.066930
19.936562
20.817518
21.901727
20.989776
22.647977
21.550655
23.400784
24.881959
25.827885
25.873780
26.931763
28.055906
30.207634
31.727552
33.829808
33.450723
37.465692
38.271546
36.983490
37.225485
36.841631
34.784675
32.180548
32.927990
30.286908
30.336976
27.895570
26.140809
26.084781
25.415421
24.287701
23.778677
21.935701
23.031831
23.154616
20.848513
19.571781
19.985437
21.471977
##ZVALUE=245
2.500415
2.523661
2.627969
2.637506
5.508661
12.021661
41.520596
87.766647
204.915404
325.812697
548.867583
702.810884
837.185979
937.512517
917.543769
797.301531
651.911497
448.828936
309.508443
175.310969
127.126575
109.587908
116.320848
130.344629
133.901834
129.157901
115.353465
99.837780
77.210665
58.395863
43.624640
29.057860
21.322966
14.682412
13.486743
14.065504
12.037754
11.800528
11.653900
11.662841
12.105703
10.916591
11.532903
10.526776
10.398626
10.917783
11.282563
11.198521
11.603832
11.877418
13.277531
12.709498
12.974739
14.252663
13.791919
16.641617
15.929937
16.001463
17.192960
17.093420
18.368959
19.680858
18.301606
20.184517
20.821691
20.938516
21.257997
23.282766
23.249984
23.995638
26.178956
27.495623
29.572845
31.204820
32.050610
33.143759
33.415556
31.389594
31.166673
28.948784
27.689934
26.131868
26.035905
25.467873
24.333000
23.370981
22.942424
21.946430
21.235943
21.794438
19.526482
20.931959
19.344687
20.991564
19.203424
17.150640
##ZVALUE=250
2.104640
2.159476
2.223849
2.203584
2.054572
2.276897
3.435612
9.884834
27.682781
61.108470
168.069601
309.259892
535.775423
713.974833
916.823745
1015.805006
1015.805006
1009.763479
882.229805
638.059974
436.294675
244.196653
155.233741
108.959675
109.575987
126.539469
139.763951
143.254995
138.067603
120.582581
105.959773
80.082417
61.453581
40.488839
27.902722
19.067526
14.780760
12.616515
12.436509
11.650920
11.495948
10.135770
11.108518
10.027885
10.328889
10.505915
10.254979
11.605620
11.086464
10.954738
11.964440
12.471676
11.708736
12.781620
12.855530
13.408661
13.763905
14.015436
14.431477
14.755726
14.776587
14.327765
15.976429
16.468763
15.227795
17.561913
18.601418
19.597411
19.102693
20.195842
21.633506
23.262501
25.241971
25.190711
26.155710
26.908517
25.757551
26.203990
26.890635
24.691820
21.964908
21.776557
21.527410
20.953417
20.427704
19.887686
17.603636
17.658472
18.733740
17.389655
17.081499
17.663836
16.179681
16.796589
15.808940
16.905665
##ZVALUE=255
2.107620
2.258420
2.141595
2.252460
2.236962
2.399683
2.504587
2.955794
2.903938
4.819632
22.937655
58.031678
123.683810
275.442004
449.796915
720.759034
934.166908
1015.933752
1015.933752
1015.933752
1015.933752
891.946554
567.888618
369.083881
189.873576
124.440789
99.264979
109.307766
129.991770
145.475864
148.644447
142.514706
134.413838
106.917620
83.093643
58.950782
40.530562
24.625659
18.989444
13.458729
10.249615
10.201931
10.403991
9.983778
10.071993
9.444952
9.486675
10.343790
10.306835
9.987950
10.929704
10.945797
11.574626
11.301637
11.317730
11.966825
12.382865
13.342500
13.034940
13.474822
13.930798
14.197826
14.360547
14.845729
14.730692
14.589429
15.086532
16.582608
17.779469
18.105507
18.460751
20.751953
20.078421
21.649599
21.381974
22.512674
21.565557
21.984577
20.693541
19.251704
19.600987
18.690825
18.006563
17.769933
17.844439
16.216636
15.578866
16.299486
15.595555
14.588833
15.391707
14.701486
14.451742
15.037656
14.979839
14.507771
##ZVALUE=260
1.572967
1.727939
1.833439
1.820922
2.039671
2.102852
1.986623
2.138615
1.893640
2.375841
2.582669
3.425479
8.223653
37.697554
86.282492
215.798616
369.806886
651.142597
890.787840
1015.805006
1015.805006
1015.805006
1015.805006
1015.805006
760.098100
525.782704
290.664434
172.129869
96.784830
88.168979
107.703805
129.617453
143.409967
154.714584
151.096582
131.371617
110.833645
83.688498
60.154796
37.977695
26.673675
16.464591
12.654662
10.066628
9.862781
9.427667
9.089708
9.781718
9.637475
10.284781
10.249615
10.772943
10.901690
10.918975
11.788607
11.226535
11.445880
11.794567
12.604594
11.836886
12.877584
12.906790
13.006926
13.687611
13.621449
15.072823
13.795495
15.471578
15.059710
15.317798
16.921759
17.505884
18.694997
17.632842
19.597411
19.572973
18.962622
19.974709
17.542839
16.657710
16.595721
16.212463
14.618635
14.967918
14.496446
13.546944
14.756918
13.389587
13.637543
14.232993
14.002919
13.145804
13.474822
13.176799
13.654828
13.126731
##ZVALUE=265
1.406670
1.712441
1.543760
1.604557
1.772642
1.854897
1.730919
2.034903
1.918674
2.159476
1.980662
2.309680
2.666712
3.256798
5.563498
24.731755
62.508583
165.142417
303.187966
600.314736
891.616940
1015.805006
1015.805006
1015.805006
1015.805006
1015.805006
949.532390
678.085685
384.326577
228.945613
130.784512
80.873966
85.558891
114.086866
134.091973
150.288939
156.183839
151.623487
134.570003
107.922554
83.167553
57.324767
40.402412
24.384856
16.728640
11.574626
10.306835
10.045767
10.367632
9.927750
10.339618
10.330677
11.239648
11.399984
11.619925
11.645555
11.693835
12.772679
12.751818
12.397766
13.183951
12.808442
12.904406
13.044477
13.278723
13.736486
14.128685
14.426708
15.221834
15.205741
15.652776
16.352534
16.835928
17.248988
17.284751
17.524958
17.135739
16.451478
15.899539
15.064478
14.056563
14.113784
14.523864
13.615489
13.547540
13.010502
12.804866
12.873411
13.611913
12.470484
12.524724
12.733936
12.422800
12.691617
11.594892
12.798905
##ZVALUE=270
1.549721
1.539588
1.405478
1.535416
1.363754
1.682639
1.693964
1.425743
1.864433
1.841784
1.629591
1.785755
1.868606
2.185702
2.419949
2.760887
3.421903
9.136796
40.237904
101.341605
258.403420
467.430949
857.686996
1015.769839
1015.769839
1015.769839
1015.769839
1015.769839
1015.769839
934.886932
624.238849
330.810547
178.771615
82.886815
69.731474
87.971687
109.039545
136.453509
151.351690
158.174634
152.472854
133.129954
113.736987
80.551505
60.934424
36.907792
26.534796
17.577410
13.502836
10.885000
10.836720
11.030436
11.105537
12.292862
11.996627
12.458563
12.476444
12.707710
13.218522
13.275743
13.260841
12.884736
13.036728
13.572574
13.847947
13.477802
13.514757
14.400482
14.227629
15.458465
15.493631
16.455650
16.905665
16.670823
16.546845
16.301870
16.087890
16.416907
15.793443
15.149713
14.836788
14.347434
13.798475
13.121963
12.918711
12.617707
13.115406
13.128519
12.544990
12.634993
11.944771
11.696815
11.431575
11.171699
11.612773
11.367798
##ZVALUE=275
1.439452
1.318455
1.475811
1.513958
1.445413
1.499653
1.326799
1.504421
1.493692
1.449585
1.742840
1.687407
1.999736
1.615882
2.043843
1.877546
2.267957
2.384782
2.684593
5.225539
19.317865
79.266429
173.850656
411.096811
691.993833
1015.805006
1015.805006
1015.805006
1015.805006
1015.805006
1015.805006
1015.804410
805.941820
435.690880
242.643952
106.119514
64.325929
63.943863
82.378983
112.078786
132.601857
150.180459
155.785680
148.369670
136.821866
106.299520
84.663630
59.166551
42.524934
28.162599
20.295978
15.150905
13.126731
12.273788
12.244582
12.635589
13.093948
13.001561
13.647676
13.892651
13.959408
14.556646
13.434887
14.264584
13.822913
14.598966
14.183521
15.236735
14.959574
14.980435
16.566515
16.716719
16.046762
16.850829
17.038584
16.502738
16.273856
16.881824
15.633702
15.346408
15.085936
13.927817
13.836622
13.513565
13.304949
13.405681
12.848973
12.141466
12.146831
11.865497
12.006760
11.155605
12.089610
11.753440
11.291504
11.016726
##ZVALUE=280
1.370907
1.058578
1.212955
1.388788
1.189709
1.494884
1.288652
1.339912
1.618862
1.457930
1.640916
1.589656
1.728535
1.570582
1.675487
1.719594
2.076626
2.013445
2.437830
2.485514
2.377629
3.215671
14.203787
46.174526
152.555704
289.924741
578.019619
878.559947
1015.805602
1015.805602
1015.805602
1015.805602
1015.805602
1015.805602
975.087881
567.651987
333.818793
141.718984
72.986484
47.578812
58.097839
84.543824
106.358528
133.516788
148.565769
150.418878
146.642923
129.570961
111.130476
82.743764
63.159466
42.845607
29.808879
19.696951
16.044974
13.615489
13.792515
13.698936
13.741851
14.163852
14.587641
14.590621
14.279485
14.496446
15.509725
14.941692
14.329553
15.125871
15.252829
15.166998
16.046762
16.773939
16.586781
16.790628
16.872883
16.799569
16.490817
16.605854
16.144514
14.946461
14.556646
14.251471
13.950467
13.871789
12.635589
12.975931
12.707710
12.108684
12.497902
11.488795
11.494756
11.669993
11.491776
11.575818
10.943413
11.311769
##ZVALUE=285
1.299977
1.140833
1.124740
1.092553
1.322627
1.130700
1.307726
1.462698
1.579523
1.379848
1.684427
1.437664
1.616478
1.625419
1.530647
1.526475
1.701713
1.973510
1.747608
1.949668
2.184510
2.198815
2.669692
2.912879
6.878972
24.825931
86.319447
181.791782
407.924652
676.837564
978.196859
1015.805006
1015.805006
1015.805006
1015.805006
1015.805006
1015.804410
762.152672
470.589995
219.419599
109.984875
46.525002
38.877726
57.312846
76.231956
106.110573
125.153661
141.994953
148.567557
145.061612
132.028461
108.291507
90.474486
63.154697
46.226978
30.048490
22.977591
17.908812
15.885830
14.765859
15.298724
15.363693
14.704466
14.709830
14.940500
15.219450
15.822649
15.949607
16.038418
15.756488
16.340613
16.824603
17.126799
16.887784
16.824603
16.436577
16.344786
15.492439
15.258789
15.699863
14.985800
14.172792
14.152527
13.195872
13.607740
12.971759
13.266802
12.391806
12.064576
12.453794
11.591911
12.003779
11.108518
11.105537
11.197925
10.537505
##ZVALUE=290
1.079440
1.054406
1.164675
1.192689
1.157522
1.075864
1.229644
1.155734
1.236796
1.277924
1.465678
1.207590
1.228452
1.526475
1.269579
1.562834
1.596808
1.596808
1.826882
1.879930
1.722574
1.916885
2.143979
2.028942
2.758503
2.820492
3.658533
10.137558
46.709776
115.011930
238.295794
528.234839
843.816996
1015.803814
1015.803814
1015.803814
1015.803814
1015.803814
1015.803814
958.502889
635.180473
314.601660
162.843466
59.706569
32.627583
37.770867
51.046610
74.637532
94.662905
120.674968
135.298967
144.691467
144.460797
130.800605
113.505721
85.825920
65.371990
44.327974
33.975840
23.268461
19.498467
16.715527
15.939474
15.171766
15.728474
15.822649
15.802979
15.780926
15.938878
16.431808
16.625524
17.027855
17.068982
16.707778
16.405582
16.094446
15.603900
16.679764
15.429854
14.960766
15.247464
14.662743
13.558865
13.196468
13.190508
12.461543
12.744665
12.700558
12.777448
12.047887
11.216998
11.336803
11.421442
10.961890
10.853410
10.923743
##ZVALUE=295
1.002550
1.120567
1.101494
1.064539
0.974536
1.063943
1.251698
1.270771
1.260638
1.174808
1.296997
1.210570
1.269579
1.210570
1.315475
1.343489
1.253486
1.385808
1.408458
1.674891
1.752973
1.461506
1.679659
1.828671
1.917481
2.107620
2.539754
2.745986
2.946854
5.005598
16.403794
70.897937
168.839693
416.432619
695.610642
1015.805006
1015.805006
1015.805006
1015.805006
1015.805006
1015.805006
1015.805006
814.186931
434.698462
231.855512
83.102584
38.943887
25.148988
32.045841
50.755739
67.861676
95.353723
113.750696
132.065415
139.298439
135.543942
126.301646
104.693770
88.288784
62.699914
47.194958
33.059716
25.351644
19.646883
16.799569
16.077757
15.688539
15.767813
15.928745
15.958548
16.504526
16.144514
16.596913
17.112494
16.529560
16.277432
15.972853
15.184879
15.009642
14.094710
14.609694
13.475418
13.778806
13.609529
12.574792
13.211966
12.483597
12.550950
11.925697
11.889935
11.338592
11.121631
11.644959
10.346770
10.494590
11.162758
##ZVALUE=300
1.037717
1.024604
0.944734
0.975728
0.939965
0.791550
1.020432
1.002550
1.112819
1.093745
1.141429
0.936985
1.240969
1.082420
1.121759
1.443624
1.186728
1.267791
1.313686
1.392961
1.390576
1.465678
1.713634
1.583695
1.785755
1.974702
2.124906
2.030730
2.247691
2.674460
2.718568
3.240705
11.060834
38.303733
133.574605
267.628431
574.179888
914.438963
1015.805602
1015.805602
1015.805602
1015.805602
1015.805602
1015.805602
968.931913
641.582608
319.519639
167.575479
60.849786
26.914477
22.836924
30.972958
47.361851
64.183474
88.450909
107.631683
126.543641
135.854483
132.316947
124.650598
104.723573
86.866617
63.228607
48.106909
32.761693
24.528503
19.213557
16.772747
15.779734
15.389919
15.370846
15.591979
15.214682
15.495420
15.453696
15.471578
14.786720
14.477968
14.430881
13.933778
13.734698
13.037920
12.724996
12.865663
12.280941
12.062788
12.265444
11.588931
11.276603
11.257529
10.699630
10.701418
10.677576
10.896921
10.356903
10.272861
##ZVALUE=305
0.971556
1.044869
0.932813
0.944734
1.036525
1.113415
1.079440
1.068711
1.205802
1.028776
1.156926
1.047850
1.191497
1.053810
0.981688
1.129508
1.193881
1.118779
1.275539
1.142621
1.303554
1.428723
1.450777
1.466870
1.350641
1.697540
1.881719
1.826882
1.958609
2.120733
2.217889
2.494454
2.739429
2.896786
4.562736
25.211573
73.168874
216.696858
404.655933
789.355636
1015.805006
1015.805006
1015.805006
1015.805006
1015.805006
1015.805006
1015.804410
779.421926
483.388901
220.043659
105.054975
35.180449
19.691586
22.908449
29.977560
46.501756
63.356757
87.078810
104.620457
122.058988
127.526522
126.985908
118.160844
100.616813
82.807541
59.066415
45.522451
31.379461
24.091601
17.764568
15.553832
14.241934
14.439821
14.348626
13.896823
13.587475
13.351440
12.942553
12.842417
12.147427
11.825562
12.175441
12.247562
11.707544
11.456609
10.916591
11.533499
10.790825
10.816455
10.688901
10.543466
10.384917
10.024905
10.216832
9.478927
9.667873
##ZVALUE=310
0.941753
0.937581
0.808835
0.914931
1.075864
1.029968
1.001954
1.061559
0.963807
1.062751
1.035929
1.127720
1.154542
1.084805
1.237988
1.244545
1.262426
1.282692
1.163483
1.223683
1.450777
1.235604
1.338720
1.448989
1.321435
1.413822
1.591444
1.606941
1.632571
1.840591
1.883507
1.881719
2.142787
2.325773
2.551675
3.045797
3.139973
11.070967
38.626790
130.833983
266.679525
576.995015
920.178890
1015.855670
1015.855670
1015.855670
1015.855670
1015.855670
1015.855670
990.134478
686.889887
340.179801
180.203915
62.941909
25.890470
17.063618
20.289421
28.834939
39.007664
57.437420
73.737502
96.421838
109.608769
120.333433
120.710731
110.900998
99.005699
78.796744
62.093735
42.158961
31.289458
22.380948
17.895699
14.385581
13.133883
12.621880
12.014508
12.011528
11.601448
11.252761
11.380911
11.352897
11.210442
10.880828
10.898709
10.703802
10.928512
10.818839
10.548830
10.076761
9.901524
10.009408
9.793639
9.735823
9.444952
9.413958
##ZVALUE=315
0.871420
0.728965
0.855923
0.833869
0.914931
0.876784
1.130700
1.001954
0.997782
0.917912
0.826716
1.062751
1.094937
1.006722
0.914931
0.961423
0.970960
1.021624
1.068711
1.074672
1.087785
1.127720
1.095533
1.211762
1.131892
1.237988
1.522899
1.488924
1.376867
1.514554
1.631975
1.715422
1.867414
1.786947
2.229810
2.098680
2.395511
2.661943
2.995729
5.818605
20.064712
85.359812
190.730691
440.121889
745.619535
1015.805006
1015.805006
1015.805006
1015.805006
1015.805006
1015.805006
1015.805006
880.458951
464.541912
249.843597
88.564754
36.764741
16.275644
15.379786
19.399524
24.972558
37.647486
50.234795
69.759488
84.636807
102.312565
112.226605
110.933781
104.738474
90.192556
74.372888
55.895448
41.954517
27.945638
20.855665
14.956594
12.954473
11.826754
11.047721
10.357499
10.618567
10.529757
10.160804
9.955764
10.280609
10.003448
9.872913
10.120869
9.756684
9.709597
9.618998
9.604692
9.521842
9.377599
9.032488
9.013414
##ZVALUE=320
0.786781
0.960827
0.822544
0.928640
0.972748
0.694990
0.914931
0.769496
0.903606
0.781417
0.891685
0.897646
1.023412
0.782609
0.994802
1.004934
1.016855
1.078844
1.067519
1.173615
1.009703
1.031756
1.122952
1.100898
1.157522
1.330972
1.254678
1.290441
1.366735
1.509786
1.464486
1.499653
1.710653
1.681447
1.602769
1.959801
1.948476
1.978874
2.038479
2.621412
2.905726
3.281832
9.077787
46.495795
123.100877
342.513919
590.661764
996.397734
1015.805006
1015.805006
1015.805006
1015.805006
1015.805006
1015.805006
1015.805006
619.423389
351.830721
144.322515
62.662959
20.148754
13.383627
13.528466
15.807748
22.329688
31.003952
47.125816
61.785579
79.595447
94.427466
105.314851
105.105639
99.547505
88.453889
69.220662
54.273605
36.919713
26.957989
18.446445
14.709830
11.278987
10.319948
10.120869
9.607673
9.472966
9.733438
9.766817
9.188652
9.429455
9.498000
9.307861
9.446740
9.421706
9.375811
9.090900
9.147525
9.089708
##ZVALUE=325
0.818968
0.924468
0.781417
0.807643
0.844598
0.846982
0.775456
1.049638
0.941753
0.838637
0.869632
0.848770
0.835657
0.893474
0.973940
0.925660
1.009703
1.034737
0.936985
0.968575
0.984669
1.013875
0.911951
1.030564
0.950694
1.029968
1.081824
1.139641
1.075864
1.282692
1.300573
1.356602
1.449585
1.405478
1.686811
1.729727
1.739860
1.817942
2.077818
1.919866
2.123713
2.492666
2.541542
2.766848
5.109906
30.723810
82.418919
226.256847
417.453647
816.809535
1015.805006
1015.805006
1015.805006
1015.805006
1015.805006
1015.805006
1015.805006
765.290856
459.658504
199.743509
91.488957
27.152896
13.102889
10.517836
10.975599
13.799667
19.194484
30.105710
41.276813
59.685707
73.909760
90.699792
97.622871
98.172426
91.986656
78.104734
64.684749
47.844648
35.443902
24.125576
17.235875
12.858510
10.681748
9.472966
9.543896
9.265542
8.988976
8.932948
8.872747
8.653998
8.809566
8.689761
8.895993
8.398890
8.716583
8.617640
##ZVALUE=330
0.652671
0.708699
0.719428
0.662804
0.688434
0.682473
0.638962
0.925660
0.800490
0.718832
0.751615
0.983477
0.887513
0.742674
0.855923
0.826716
0.819564
0.967979
0.844598
0.871420
1.021624
1.109838
0.998974
0.843406
0.886917
1.115799
1.088977
1.054406
1.053810
0.950694
0.992417
1.231432
1.241565
1.396537
1.286864
1.439452
1.309514
1.608729
1.692772
1.798868
1.770854
1.742840
1.942515
2.252460
2.451539
2.621412
3.401637
13.327599
42.638779
146.202445
288.321972
607.458949
932.101607
1015.794873
1015.794873
1015.794873
1015.794873
1015.794873
1015.794873
961.923599
627.020001
287.209749
142.565966
46.881437
17.340779
9.866953
9.584427
10.185838
12.689829
19.565821
26.524663
40.278435
53.413510
71.684718
82.300901
90.918541
90.191960
84.975958
74.094534
58.299899
45.227408
30.975938
23.805499
16.199946
12.824535
10.393858
9.492636
8.794665
8.750558
8.586645
7.956624
8.371472
8.263588
8.104444
8.229613
8.176565
##ZVALUE=335
0.633597
0.658631
0.658631
0.760555
0.780821
0.702739
0.650883
0.641942
0.674725
0.739694
0.831485
0.865459
0.668764
0.735521
0.650883
0.898838
0.873804
0.849962
0.849962
0.866652
0.653863
0.806451
0.890493
0.980496
0.771880
1.115799
0.864863
0.959635
0.957847
0.962615
0.998974
1.133680
1.046658
1.109838
1.240969
1.234412
1.264811
1.069903
1.414418
1.451969
1.407862
1.570582
1.508594
1.740456
1.837611
1.996756
2.230406
2.531409
2.825856
6.423593
22.373796
89.175701
195.150971
458.840728
760.082006
1015.766859
1015.766859
1015.766859
1015.766859
1015.766859
1015.766859
1015.766859
812.165737
428.051949
222.765803
72.097778
26.413798
10.714531
8.924603
9.256601
9.977818
12.630820
17.581582
27.277470
37.252903
54.054856
65.146685
77.866912
85.199475
84.495544
80.217719
68.017840
57.827830
43.686628
33.677816
23.319721
16.953945
12.462735
10.641813
9.000897
8.303523
8.162856
8.055568
7.745624
8.022785
8.108616
##ZVALUE=340
0.734925
0.819564
0.635982
0.702739
0.867844
0.787973
0.580549
0.534654
0.556707
0.659823
0.723600
0.663996
0.728965
0.755787
0.695586
0.821948
0.812411
0.932813
0.869632
0.803471
0.922680
0.854731
0.846982
0.899434
1.004934
0.925660
0.975728
1.030564
1.067519
0.915527
1.132488
0.994802
1.050830
0.988841
1.150966
1.031756
1.054406
1.254678
1.301765
1.308918
1.373887
1.401901
1.568794
1.432896
1.775622
1.713634
1.964569
2.017617
2.134442
2.550483
2.804995
3.623962
25.837421
49.161911
286.186934
329.451561
882.083774
1005.520821
1015.805006
1015.805006
1015.805006
1015.805006
1015.805006
1015.805006
957.501531
626.873970
301.865935
144.476891
26.600957
12.196898
9.277463
8.991957
8.933544
10.154843
12.213588
17.559528
24.521947
36.168694
47.682524
63.427687
72.679520
79.563856
79.947710
74.798465
66.613555
53.202510
42.942762
31.876564
24.076700
16.103983
12.288690
9.560585
8.287430
7.920861
7.735491
7.516742
##ZVALUE=345
0.639558
0.693798
0.630617
0.711679
0.775456
0.670552
0.762939
0.736713
0.740886
0.723600
0.649691
0.707507
0.732541
0.765920
0.714660
0.643730
0.714660
0.776649
0.740886
0.895858
0.810623
0.851750
0.816584
0.781417
0.871420
0.889897
0.830889
0.843406
0.880957
0.895858
0.970960
1.094937
1.076460
1.041889
0.980496
1.190901
1.141429
1.220703
1.180768
1.216531
1.200438
1.270771
1.256466
1.449585
1.473427
1.401901
1.543760
1.754761
1.652837
1.604557
2.072453
2.168417
2.359748
2.557635
6.300807
24.293661
100.967884
213.438869
478.501916
772.254467
1015.805602
1015.805602
1015.805602
1015.805602
1015.805602
1015.805602
1015.805602
753.899813
358.893871
178.055763
56.123734
21.719933
10.142922
8.981824
8.740425
8.419752
9.045601
10.619760
16.072989
22.092462
33.849478
43.836832
56.574941
65.636635
72.858930
74.151754
70.816875
63.932538
51.859617
42.786598
30.858517
23.231506
15.605688
12.091994
9.485483
8.337498
##ZVALUE=350
0.639558
0.692606
0.684857
0.543594
0.678897
0.827909
0.633597
0.645518
0.589490
0.730753
0.773668
0.761747
0.789762
0.841618
0.763535
0.722408
0.797510
0.906587
0.760555
0.797510
0.977516
0.895858
0.737906
0.801682
0.818968
0.965595
0.877976
1.015663
0.880957
0.779629
1.096725
0.998974
0.821948
0.993609
1.106858
0.897646
1.061559
0.930429
1.140833
1.009703
1.236796
1.149774
1.172423
1.399517
1.322627
1.196861
1.436472
1.277924
1.528859
1.464486
1.721978
1.895428
2.123713
2.033710
2.185702
2.592802
3.374815
15.924573
50.923824
162.701011
316.311717
659.760833
975.833535
1015.815735
1015.815735
1015.815735
1015.815735
1015.815735
1015.815735
790.016651
489.290953
223.053694
103.158951
28.081536
11.541843
8.331537
8.048415
7.860661
7.605553
8.451939
10.257959
15.159845
20.016432
29.002428
37.612915
50.518513
58.327913
65.239668
68.195462
65.919757
59.677958
49.199462
40.060878
28.265715
21.876693
15.379786
##ZVALUE=355
0.719428
0.810623
0.730753
0.542998
0.833869
0.722408
0.762939
0.782609
0.689626
0.567436
0.658631
0.836849
0.667572
0.695586
0.787973
0.914931
0.809431
0.735521
0.805855
0.767708
0.736713
0.896454
0.735521
0.878572
0.698566
0.749826
0.942945
0.907779
0.845790
0.832677
0.802875
1.038909
1.002550
0.962615
0.921488
1.050830
1.063943
1.101494
1.051426
1.029968
0.941753
1.178980
1.199841
1.094937
1.211762
1.249909
1.309514
1.230836
1.469851
1.325607
1.360774
1.666546
1.639724
1.756549
1.863837
1.990795
2.227426
2.380610
2.826452
7.635951
27.572513
108.419657
224.649906
488.660932
799.116492
1015.802622
1015.802622
1015.802622
1015.802622
1015.802622
1015.802622
955.670476
608.238578
267.155766
125.023723
36.377907
14.106631
8.357763
7.732511
7.291436
7.113814
7.231832
7.715821
9.166598
11.867881
17.640591
23.958683
34.887791
42.941570
52.794814
58.377981
61.549544
60.347915
53.751469
47.053695
37.445426
##ZVALUE=360
0.981688
0.858903
0.993609
0.890493
1.021624
0.887513
0.932813
0.829697
0.778437
0.835657
0.897646
0.967979
0.794530
0.824928
0.936985
0.881553
0.960827
1.023412
0.927448
1.129508
1.116991
0.958443
1.053810
1.109838
1.017451
0.943542
0.939965
1.015663
1.043677
1.135468
0.779629
1.103878
1.183748
1.041889
1.190901
1.195669
0.946522
1.245737
1.373887
1.282692
1.333952
1.343489
1.452565
1.246929
1.327991
1.360774
1.489520
1.416802
1.655817
1.572967
1.771450
1.716614
1.599789
1.910925
1.860857
2.085567
2.108812
2.164841
2.308488
2.585649
3.029704
4.268885
12.868643
58.907866
142.389536
356.715918
611.156821
1002.873778
1015.990973
1015.990973
1015.990973
1015.990973
1015.990973
1015.990376
824.217796
401.492715
204.657912
69.000721
24.809837
9.113550
7.624626
7.576942
7.107854
6.999969
6.813407
7.131696
8.055568
10.489821
14.148951
20.717978
27.782917
38.420558
45.414567
52.939653
55.507421
55.763721
##ZVALUE=365
0.682473
0.756979
0.749826
0.579953
0.675917
0.662804
0.705719
0.824928
0.714660
0.694990
0.801682
0.703931
0.580549
0.639558
0.677705
0.782609
0.760555
0.889897
0.891685
0.728965
0.754595
0.779629
0.862479
0.748634
0.845790
0.785589
0.896454
0.911951
0.916719
0.988841
0.914931
0.892878
0.868440
0.812411
0.993609
1.028776
0.921488
1.105666
1.167655
1.083612
0.994802
1.074672
1.183748
1.222491
1.132488
1.162887
1.291633
1.147985
1.056790
1.342893
1.332760
1.202822
1.485944
1.481771
1.704693
1.611710
1.752973
1.699924
1.828671
2.040863
2.314448
2.482533
2.709627
3.076792
5.548596
31.030774
89.055896
247.831941
455.926061
847.143531
1015.805006
1015.805006
1015.805006
1015.805006
1015.805006
1015.805006
961.827636
527.359843
284.690857
99.106431
36.762953
10.356903
7.398725
6.772876
6.599426
6.094575
5.904436
5.860925
5.911589
6.988645
8.343458
12.455583
16.534925
23.947954
30.187964
39.024949
##ZVALUE=370
0.718832
0.784993
0.727773
0.607967
0.519753
0.676513
0.649691
0.560880
0.601411
0.632405
0.560880
0.622869
0.656843
0.635982
0.696778
0.804663
0.734925
0.769496
0.756979
0.584722
0.714660
0.749826
0.868440
0.756979
0.716448
0.756979
0.667572
0.776649
0.803471
0.808835
0.795722
0.709891
0.728965
0.851750
0.657439
0.854731
0.991821
0.864863
0.984669
0.951886
1.084805
0.962615
1.070499
1.073480
1.110435
1.019835
1.086593
1.041889
1.320839
1.152754
1.086593
1.263618
1.268983
1.223683
1.242757
1.335740
1.475811
1.570582
1.510978
1.594424
1.702905
1.963973
1.980662
2.303720
2.225637
2.772808
3.606677
15.782714
54.656863
179.604888
337.290764
654.766560
971.348882
1015.778780
1015.778780
1015.778780
1015.778780
1015.778780
1015.778780
640.109777
358.783603
138.081908
59.834719
17.331839
8.158684
6.395578
6.254911
5.611777
5.260706
5.375743
5.036592
5.257726
5.865693
7.668734
9.814501
14.362931
##ZVALUE=375
0.688434
0.651479
0.728965
0.643730
0.698566
0.658631
0.541806
0.623465
0.622869
0.748634
0.744462
0.551939
0.601411
0.623465
0.628829
0.669956
0.775456
0.689626
0.736713
0.790954
0.652671
0.801682
0.754595
0.859499
0.668764
0.655651
0.836849
0.768900
0.713468
0.766516
0.801682
0.828505
0.849962
0.980496
0.741482
0.689626
0.934601
0.836849
0.850558
0.849962
0.898838
0.865459
0.909567
1.013875
1.029968
0.859499
1.011491
1.014471
1.078844
0.948906
0.872612
1.069903
1.099706
1.089573
1.031756
1.299977
1.268983
1.276731
1.333952
1.402497
1.453757
1.568794
1.606941
1.655817
1.784563
1.860857
2.127886
2.520680
2.949834
7.887483
28.215647
107.286572
231.734514
522.609949
828.152895
1015.805006
1015.805006
1015.805006
1015.805006
1015.805006
1015.804410
824.660659
519.832969
241.490006
118.555427
34.138560
11.939406
5.974770
5.708933
5.376935
5.051494
4.633665
4.690886
4.569888
4.603863
5.089641
##ZVALUE=380
0.625849
0.674725
0.676513
0.611544
0.557899
0.633597
0.651479
0.698566
0.737906
0.638962
0.638962
0.657439
0.639558
0.734925
0.629425
0.593662
0.654459
0.740886
0.814795
0.766516
0.586510
0.731945
0.634789
0.751615
0.618696
0.521541
0.717640
0.599623
0.630617
0.751615
0.791550
0.774860
0.774860
0.796914
0.806451
0.638962
0.692606
0.629425
0.737906
0.842810
0.906587
0.835657
0.835657
0.834465
0.976920
1.008511
0.888705
1.040697
1.029968
0.822544
0.946522
1.016855
0.798702
0.948906
1.046658
1.036525
1.143813
1.192689
1.132488
1.332760
1.264811
1.510978
1.205802
1.297593
1.590848
1.522899
1.675487
1.962781
2.093911
2.371669
2.665520
4.518628
15.560985
78.147650
183.736682
432.880521
702.382922
1015.805006
1015.805006
1015.805006
1015.805006
1015.805006
1015.805006
969.564915
670.421720
336.497426
173.301697
58.248639
21.288991
7.002950
5.200505
4.921556
4.663467
4.565716
4.371405
4.450679
##ZVALUE=385
0.544786
0.549555
0.541806
0.593662
0.644922
0.571609
0.592470
0.575781
0.539422
0.521541
0.542998
0.541806
0.631809
0.727773
0.590682
0.519753
0.587702
0.746846
0.662804
0.645518
0.643730
0.710487
0.712872
0.642538
0.788569
0.652671
0.655651
0.728965
0.809431
0.623465
0.706911
0.687838
0.687838
0.588894
0.787973
0.653863
0.633597
0.811815
0.748634
0.836849
0.717640
0.696778
0.742674
0.654459
0.741482
0.806451
0.737906
0.877976
0.927448
0.765920
0.760555
0.959635
0.919700
0.826716
0.924468
0.970960
0.934601
1.063943
1.054406
0.901818
1.019835
1.095533
1.075864
1.293421
1.308918
1.215935
1.496673
1.668930
1.653433
1.959801
2.068877
2.187490
2.438426
2.981424
7.301569
42.440891
113.871694
296.959877
525.230765
934.153795
1015.805006
1015.805006
1015.805006
1015.805006
1015.805006
1015.805006
804.301500
449.388623
257.605910
105.712414
40.927529
9.437799
5.522966
4.964471
4.544854
4.219413
##ZVALUE=390
0.588894
0.586510
0.486970
0.545979
0.643730
0.668764
0.720620
0.610948
0.445843
0.564456
0.772476
0.511408
0.541806
0.771880
0.649691
0.624657
0.660419
0.632405
0.493526
0.456572
0.691414
0.742674
0.464916
0.533462
0.611544
0.594854
0.528693
0.543594
0.613928
0.695586
0.705719
0.609756
0.754595
0.658631
0.664592
0.659823
0.718832
0.642538
0.744462
0.743866
0.846982
0.758767
0.736713
0.736713
0.890493
0.689626
0.858903
0.834465
0.651479
0.738502
0.891685
0.831485
0.825524
0.733733
0.898838
0.732541
0.891685
0.920892
0.863671
0.955462
0.993609
0.956655
1.068711
1.126528
1.064539
1.313686
1.220703
1.550913
1.493692
1.845956
1.911521
1.995564
2.089739
2.294779
2.290606
2.424717
3.979802
22.251606
72.925687
230.909586
438.365936
832.766891
1015.802026
1015.802026
1015.802026
1015.802026
1015.802026
1015.802026
986.794829
616.815686
361.239910
147.196651
67.162514
19.325614
5.758405
4.726648
##ZVALUE=395
0.504851
0.640750
0.574589
0.472665
0.519753
0.506639
0.596642
0.546575
0.586510
0.666976
0.415444
0.425577
0.504851
0.483990
0.679493
0.652671
0.625849
0.568628
0.633597
0.686646
0.533462
0.507832
0.691414
0.692606
0.578761
0.724792
0.641942
0.618696
0.684857
0.691414
0.694990
0.724792
0.782609
0.678897
0.682473
0.712872
0.727773
0.559688
0.607967
0.665784
0.617504
0.794530
0.771880
0.791550
0.708699
0.776649
0.729561
0.780821
0.801682
0.930429
0.820756
0.747442
0.928640
0.870824
0.989437
0.889897
0.996590
0.810623
0.949502
0.944734
0.903606
1.044869
0.969768
1.171827
1.180768
1.039505
1.321435
1.300573
1.542568
1.760721
1.806617
1.868606
1.938939
1.812577
2.012849
1.868606
2.164841
2.091527
3.051758
10.128617
56.095719
138.932467
331.633687
565.356016
966.889858
1015.805602
1015.805602
1015.805602
1015.805602
1015.805602
1015.805602
816.724896
444.847941
246.255994
93.758702
40.562749
##ZVALUE=400
0.511408
0.597835
0.623465
0.669956
0.413656
0.491738
0.570416
0.396967
0.562668
0.508428
0.644922
0.586510
0.632405
0.676513
0.430942
0.611544
0.413656
0.539422
0.507832
0.469685
0.470877
0.533462
0.633597
0.663996
0.672936
0.646710
0.593662
0.565648
0.572801
0.612736
0.595450
0.695586
0.759959
0.721812
0.588894
0.787973
0.638962
0.799894
0.734925
0.687838
0.656843
0.731945
0.598431
0.670552
0.799894
0.841618
0.774860
0.772476
0.790954
0.809431
0.750422
0.607967
0.788569
0.900626
0.763535
0.854731
0.907779
0.839829
0.866652
1.010895
0.960827
0.948906
1.053810
1.087785
1.029968
1.238585
1.327991
1.282692
1.289845
1.497865
1.747608
1.616478
1.820922
1.734495
1.684427
1.631975
1.659989
1.730919
1.896620
2.161860
2.447963
5.034804
29.360652
82.863569
231.322646
421.794653
793.016553
1015.805006
1015.805006
1015.805006
1015.805006
1015.805006
1015.805006
915.111899
541.010499
323.736668
##END
