##TITLE=
##FORMAT=SPECTACLE-ASCII V-1.2
##DATA TYPE=ULTRAVIOLET SPECTRUM
##SECOND TYPE=ULTRAVIOLET SPECTRUM
##DATE=09/27/17
##TIME=13:14:33
##SPECTROMETER/DATA SYSTEM=SPECTACLE
##XUNITS=NM EM
##YUNITS=ENERGY
##YFACTOR=1
##FIRSTX=220
##LASTX=410
##NPOINTS=96
##3DDATA=Equidistant
##ZUNITS=NM EX
##FIRSTZ=210
##LASTZ=400
##ZPOINTS=39
##XYDATA=(Y..Y)
##ZVALUE=210
4.465580
3.583431
3.889799
3.624558
3.713965
3.570914
4.007816
3.751516
4.267693
3.518462
3.070831
3.835559
3.498793
2.914667
2.974868
3.733635
3.286600
3.667474
4.069805
4.069805
4.106760
5.201697
5.196929
4.343987
5.245805
5.633831
5.986691
5.333424
5.669594
6.578565
6.174445
5.944967
6.140471
7.366538
7.062554
7.079840
6.614923
7.055998
6.687641
7.433891
7.172823
7.125735
6.635785
7.179976
7.691979
7.973909
8.482933
7.819533
7.910728
8.221865
9.043813
8.236766
8.631945
8.916855
8.091927
8.368492
7.924438
8.583665
9.428859
9.174943
9.699464
10.843873
9.486675
8.516908
9.618998
9.429455
10.912418
10.810494
12.850761
13.916492
15.669465
19.489527
22.537708
24.823546
26.939511
26.123524
28.187633
26.152730
26.300550
24.585724
21.807551
19.080639
16.627908
15.065670
13.135672
10.826588
10.204911
9.851456
8.425713
8.046627
8.559823
7.666945
8.901954
9.117723
9.357929
9.476542
##ZVALUE=215
11.690855
11.067986
10.189414
8.305907
8.668900
6.851554
6.927848
6.788969
6.166697
6.977916
6.169677
6.879568
5.325675
4.733801
4.437566
4.264712
4.603863
3.718734
4.175901
4.163980
4.238486
4.740953
4.690886
5.345941
5.576611
4.953742
4.810691
6.182790
6.465912
6.059408
6.164908
6.586909
6.802678
7.153749
6.170869
7.573962
6.892681
7.818937
6.419420
6.667972
7.376671
7.068515
8.147955
7.147789
8.366704
7.038713
8.372664
9.314418
8.511543
8.238554
9.356737
8.966923
8.249879
9.656549
9.215474
9.237528
8.715987
9.316802
8.600950
7.931590
9.052753
9.639859
9.323955
8.830428
9.521842
10.773540
9.847879
10.698438
12.625456
13.256669
15.576482
16.877651
21.576881
23.495555
26.133657
26.746988
25.342703
24.641752
26.213527
22.220612
20.282865
18.384457
16.484857
15.839934
12.571812
11.840463
11.130571
9.981990
9.124875
8.112788
8.896589
7.968545
7.852912
7.462502
8.728504
8.172989
##ZVALUE=220
33.590794
31.113625
34.898520
36.883950
32.087564
24.569631
22.615790
16.747713
13.631582
13.913512
14.053583
13.736486
13.845563
12.758970
11.146665
9.169579
6.830692
5.524755
5.268455
5.438924
5.327463
4.604459
4.929900
5.710721
5.682707
6.385446
5.253553
6.401539
5.923510
6.887913
5.659461
7.815957
7.711649
6.988645
6.956458
7.344484
6.849766
7.752776
7.381439
7.554889
7.390976
8.228421
7.694960
7.991791
9.387732
8.790493
8.927584
8.206964
8.233786
8.926988
8.842945
9.348989
8.846521
9.023547
9.627938
9.117723
9.367466
9.366870
9.935498
9.624958
9.579659
10.317564
10.034442
9.319782
9.202957
11.252761
10.918975
12.732744
13.468862
14.317632
15.863776
18.420815
21.434426
21.892786
23.199916
23.573637
24.270415
24.964809
24.596453
22.101998
20.364523
19.436479
18.526912
14.710426
12.482405
11.500716
11.179447
9.353757
9.577870
8.967519
8.916855
8.951426
7.994771
8.529425
7.922649
8.062720
##ZVALUE=225
54.280758
55.884719
75.864792
88.478923
97.592473
102.670789
89.065433
72.838664
55.410862
38.580894
33.155680
27.712584
27.878881
29.804707
28.871894
26.262999
23.922920
16.632676
13.907552
9.808540
8.058548
5.882978
6.434917
5.980730
5.839467
6.184578
7.138848
6.988645
6.062984
6.378889
6.897449
7.650852
7.296801
7.654428
8.252859
7.472634
7.645488
8.799434
8.413792
8.850694
8.449554
8.658767
8.158684
9.228587
8.708835
9.506941
8.970499
8.662939
9.067655
9.082556
9.444952
9.548664
11.004806
9.673834
10.593534
9.841919
10.874867
10.994673
11.198521
10.260940
11.598468
11.766553
11.473894
11.083484
11.840463
10.354519
11.802912
12.612939
13.469458
15.396476
16.238689
18.308759
20.572543
21.700859
24.702549
24.675727
24.391413
23.727417
22.578835
21.054745
20.508766
18.215775
16.391873
14.101863
13.884902
13.157725
11.031628
11.027455
10.605454
10.032654
9.990931
10.063648
9.364486
10.100603
9.772778
9.283423
##ZVALUE=230
41.068792
46.018958
76.354742
125.343800
166.897774
213.756561
230.699778
231.488943
205.471516
178.284645
120.379925
88.387728
58.624744
51.304698
46.309829
50.261617
52.505732
50.660968
43.773651
39.907694
29.606819
19.215941
14.009476
10.119677
8.509755
7.272959
7.091761
6.985664
7.379651
6.981492
7.568598
7.130504
7.809997
7.657409
7.136464
7.907748
8.657575
8.773804
9.393692
7.805824
8.064508
8.794665
8.774996
8.289814
9.146929
10.325909
10.703802
9.680986
10.120869
10.472536
10.256767
11.048913
11.881590
11.253953
11.728406
11.394620
11.834502
10.955930
12.483597
10.842681
13.045669
13.187528
12.873411
12.192726
13.023615
13.597608
12.671947
14.769435
16.345978
16.563535
17.715693
20.188689
22.899508
24.070740
25.008917
25.647879
25.569797
23.739934
22.992492
21.863580
20.428896
18.064976
16.674995
15.781522
14.340878
13.790727
13.395548
12.830496
12.471676
11.563897
12.217760
11.932850
11.638999
11.510849
10.786653
10.868907
##ZVALUE=235
14.181733
16.692877
36.523938
80.461502
139.169693
226.264000
305.819511
399.872661
447.790623
453.198552
397.163630
336.102843
230.570436
168.171525
109.210610
89.354515
72.898865
79.338551
85.956454
85.123777
84.195733
65.377951
56.209564
38.405657
26.526451
15.902519
13.083816
9.664893
8.216500
8.817911
9.327531
9.380579
8.921623
8.433461
9.053946
8.459687
8.624792
8.411407
9.146929
9.461641
9.973645
9.877682
9.495616
10.186434
10.861754
9.304881
10.099411
11.308789
10.480881
10.714531
11.053681
10.541677
11.962652
12.197495
11.366606
13.255477
13.891459
13.342500
13.756752
14.542937
13.841987
13.701916
13.870597
14.835000
15.027523
15.409589
15.950799
16.247630
17.096996
18.983483
20.294785
22.093654
25.216937
27.400851
27.642846
28.074980
26.037693
24.599433
25.019646
23.840666
22.153854
19.997954
20.035505
17.958879
16.640425
14.912486
15.705824
15.186667
15.150905
12.557507
13.139844
14.461875
13.941526
13.056993
13.576746
12.967587
##ZVALUE=240
2.801418
2.584457
6.965995
18.229485
49.634576
98.188519
204.265714
315.415859
481.677651
582.327843
677.532554
686.202645
644.730926
517.426729
396.637917
254.733562
177.080631
122.064948
101.035833
104.495883
112.901926
117.750764
109.368563
103.974938
80.461502
66.975951
46.691895
33.713579
21.375418
16.030669
12.167692
10.705590
9.999871
9.644628
9.397864
8.280873
9.981990
10.085702
10.447502
10.942817
10.607839
10.620952
9.985566
10.377765
10.322928
9.880662
10.912418
10.777712
10.095835
11.317730
11.380911
11.317730
12.874603
11.995435
11.965632
12.113452
13.319850
14.350414
13.953447
14.137626
14.983416
13.983846
14.150739
14.091730
16.667843
15.116930
15.890598
18.057823
17.358661
20.789504
21.505952
22.655725
24.875998
26.800632
27.210712
25.999546
27.952790
24.822950
25.014877
23.768544
24.285913
21.410584
19.112825
18.212795
18.534660
17.371774
17.052889
17.012954
16.847849
14.307499
14.795661
14.639497
15.534759
14.538765
12.947917
13.870597
##ZVALUE=245
2.512932
2.728701
2.935529
2.775788
6.001592
13.539791
43.784976
94.040632
211.832523
340.108871
540.081859
694.100857
800.786614
862.926841
831.228495
695.770979
565.205812
383.356810
263.033509
155.758858
110.696554
101.331472
113.502741
125.247836
127.047896
125.496984
112.940669
94.227791
69.842935
54.044724
38.624406
24.761558
17.858744
12.807846
10.178685
10.042787
9.221435
9.042621
8.866787
8.960962
9.082556
9.242892
9.083748
10.001659
9.246469
9.170771
9.787679
9.786487
10.114908
10.736585
10.400414
10.100603
10.831952
10.268688
10.033846
11.079907
12.102723
12.289882
13.438463
11.932850
12.761950
12.390614
12.235641
11.297464
14.276505
13.204813
13.547540
14.988780
15.639663
16.170740
18.004775
19.740462
21.466613
23.066998
23.492575
23.580790
22.666454
22.080541
23.655891
21.392703
18.766522
18.241405
17.747879
16.234517
16.359687
16.476512
14.526844
14.422536
14.787912
13.907552
13.011694
13.235807
13.136864
13.007522
13.263822
13.246536
##ZVALUE=250
1.980662
1.949668
2.184510
2.144575
2.234578
2.382994
2.921820
9.022951
33.492446
77.829957
194.745660
330.342650
485.012531
720.048547
867.086649
992.505550
996.286869
901.236534
765.669942
528.391600
360.297561
229.245424
130.277872
101.890564
105.966926
117.937922
133.322477
136.307478
131.845474
118.626952
102.863908
80.286860
58.223605
37.041903
25.243759
15.343428
11.599660
9.510517
9.839535
8.723736
9.151697
8.249879
8.144975
7.709861
8.241534
8.948445
8.530617
9.388924
8.504987
8.457899
9.479523
9.306669
9.541512
9.376407
10.014772
9.280443
9.384751
10.345578
10.697842
10.892749
10.013580
10.493994
11.012554
10.176897
11.261702
12.525916
12.977719
13.304949
13.164878
15.049577
15.140772
16.433001
16.368628
18.753409
19.211769
19.615889
18.715858
19.695759
16.776919
17.010570
17.042756
14.878511
15.659928
13.841987
13.065934
12.892485
12.749434
12.317896
12.869835
11.943579
12.459755
11.701584
10.996461
10.827780
10.509491
10.825992
##ZVALUE=255
1.892447
1.855493
1.889467
1.923442
1.893640
2.114773
2.024770
2.215505
2.532601
5.077720
24.713874
61.690807
130.125880
285.751820
446.654558
722.647905
905.268788
1015.805006
1015.805006
1015.805006
961.496830
760.982037
475.904942
304.285884
157.974958
109.009743
94.470978
104.704499
126.019716
138.804913
141.964555
139.294863
127.626657
102.379918
82.005858
55.627823
38.766861
22.108555
14.330745
11.135936
8.704662
9.110570
7.753968
7.883906
7.163882
7.478595
7.444620
7.953644
8.428693
7.755756
8.144975
8.062720
7.999539
8.468628
8.496642
8.420944
8.613467
8.525848
9.970665
8.926988
9.050965
8.622408
9.370446
10.168552
9.322762
10.490417
10.556579
10.228753
11.544824
12.643933
12.935996
13.769865
14.927983
16.409755
15.568733
15.855432
16.311407
15.704632
15.349984
13.589859
13.445616
12.928843
11.660457
12.042522
10.950565
11.275411
10.584593
10.564923
9.560585
10.122657
9.500980
10.347962
10.674596
10.340810
9.056926
9.819865
##ZVALUE=260
1.584888
1.569986
1.592636
1.997948
1.618862
1.910925
1.714826
1.953840
2.307892
2.563000
2.380610
3.476739
12.498498
37.447810
102.868676
206.948519
431.248546
632.069707
844.914913
1015.805006
1015.805006
1015.805006
1015.805006
929.132700
687.955022
402.485728
258.238912
138.043761
92.153549
86.726546
103.271604
126.326680
142.525434
149.179697
147.415996
130.366683
112.492442
79.495907
58.287978
35.856962
24.372935
14.631748
10.189414
7.399917
7.442832
6.901622
7.609725
7.226467
7.584691
7.102489
7.960796
7.507801
7.954836
7.578731
7.948875
7.565618
7.816553
8.023977
7.976890
8.020997
8.218884
7.913709
8.311868
7.993579
8.235574
8.315444
8.697510
9.807944
9.658933
11.163950
11.032820
10.995865
13.094544
13.297796
13.512969
13.049841
13.992786
12.969971
11.473894
12.048483
11.268854
10.873675
10.382533
10.323524
9.074807
9.240508
9.031892
9.295940
8.095503
9.458661
9.053946
8.664727
8.746982
8.653998
8.922815
8.743405
##ZVALUE=265
1.584888
1.602769
1.486540
1.525879
1.668930
1.815557
1.724958
1.882911
2.063513
1.991987
1.890659
2.166629
2.318621
2.786517
5.184412
27.935505
69.149733
182.821751
324.331522
617.676973
883.306861
1015.779972
1015.779972
1015.779972
1015.779972
1015.779376
878.852606
623.898506
354.425907
212.039948
122.551918
75.694919
81.321001
111.090541
132.494569
150.541663
152.179003
145.567656
130.170584
106.146932
82.157850
53.854585
36.500692
22.062659
13.355613
9.236932
7.898808
7.124543
7.438660
6.190538
7.061958
7.112622
6.547570
7.841587
7.371902
7.407665
7.250905
7.641912
7.745624
7.219911
7.546544
7.959604
7.596612
8.142591
7.549524
8.112788
8.416772
8.381605
8.784533
9.546876
10.374784
10.333657
11.670589
11.713505
11.783838
12.122989
11.454821
11.459589
10.914803
10.574460
9.614825
9.389520
9.226799
9.218454
8.592606
8.057952
8.152723
8.613467
8.254647
7.873774
7.700920
7.120967
7.572770
7.931590
7.832646
7.443428
##ZVALUE=270
1.406670
1.263618
1.400709
1.551509
1.593828
1.473427
1.601577
1.742840
1.745820
1.709461
1.935959
1.821518
2.016425
2.191663
2.200603
2.493858
3.681779
10.029674
45.892596
112.428665
276.623964
493.667722
878.916979
1015.805602
1015.805602
1015.805602
1015.805602
1015.805602
1015.805602
832.407475
568.311810
290.190578
165.286660
81.195831
67.407489
86.005926
104.214549
134.818554
147.796869
153.080821
148.847699
129.628778
109.411478
80.004930
58.079958
35.481453
23.552775
13.558865
9.808540
7.699728
7.116795
7.230639
7.442832
7.386804
7.426739
7.178783
7.424951
7.534623
7.553697
7.621646
7.651448
7.419586
7.592440
7.492900
7.692575
7.462502
7.957816
8.317828
8.179545
8.830428
10.019541
10.445714
10.589957
11.073947
10.532737
10.902882
10.736585
9.880662
9.843707
8.970499
8.373857
8.684993
8.133650
8.333921
7.915497
7.676482
7.143617
7.325411
6.859899
7.479787
7.118583
7.152557
6.770492
6.919503
6.649494
7.398725
##ZVALUE=275
1.496673
1.482964
1.478791
1.650453
1.180768
1.674891
1.539588
1.535416
1.522899
1.795888
1.657605
1.866817
1.713634
2.030730
1.919866
1.844764
2.180934
2.361536
2.759695
6.011724
23.408532
69.651008
209.220648
395.462513
750.995874
1003.283858
1015.813947
1015.813947
1015.813947
1015.813947
1015.813947
1015.813947
751.923919
402.547717
231.502652
101.240873
61.170459
61.333776
78.892708
107.750893
127.311945
146.510601
151.135921
143.828988
131.285787
103.116632
83.185434
56.363940
40.018559
22.932887
15.797615
10.044575
8.858442
7.388592
7.432699
7.051826
7.164478
7.193685
7.201433
7.524490
7.740855
7.311702
7.397532
7.509589
7.200837
7.694960
7.621646
7.810593
8.079410
8.621812
9.171963
9.919405
10.582805
10.711551
10.286570
10.682940
9.945631
9.724498
9.530783
8.427501
8.879900
8.144975
7.717609
7.418990
7.115602
7.363558
7.103682
6.548762
7.149577
6.680489
6.284714
6.127954
6.221533
6.365776
6.047487
6.253719
##ZVALUE=280
1.549721
1.387596
1.452565
1.480579
1.554489
1.450777
1.565814
1.571774
1.485944
1.515746
1.360774
1.587868
1.695752
1.682639
1.715422
1.962781
1.805425
2.304912
2.036691
2.422929
2.762675
3.449917
15.723705
53.690672
173.774958
326.246619
627.615452
922.733545
1015.927792
1015.927792
1015.927792
1015.927792
1015.927792
1015.927792
923.323631
516.812801
305.720568
134.635568
68.751574
45.665503
55.875778
81.288815
101.774931
128.052831
142.725706
148.772597
142.810941
125.908852
106.839538
79.894662
59.173703
37.315488
24.312735
15.339851
10.983944
8.458495
8.076429
7.503629
7.423759
7.480979
7.485747
7.659793
7.341504
7.844567
7.832646
8.008480
7.301569
8.355975
8.226633
8.618832
8.893609
9.440780
9.485483
9.870529
10.034442
10.020733
9.695888
9.488463
9.007454
8.807778
8.191466
7.667542
7.372499
7.709861
7.404685
7.234812
6.902814
6.372929
6.748438
6.628633
6.267428
6.043911
5.848408
6.015897
5.783439
5.837679
##ZVALUE=285
1.267791
1.279712
1.197457
1.344681
1.392961
1.230836
1.265407
1.433492
1.429915
1.255870
1.452565
1.367927
1.327991
1.511574
1.293421
1.660585
1.800656
1.668930
1.584888
2.026558
2.055764
2.359748
2.653599
2.935529
6.645918
35.926700
91.343522
245.881677
438.851714
798.410773
1015.805006
1015.805006
1015.805006
1015.805006
1015.805006
1015.805006
1015.804410
702.160597
437.793732
199.773908
99.617839
42.494535
37.174821
54.279566
73.157549
101.311803
121.505857
138.266683
144.289732
139.142871
126.592517
104.188919
84.085464
58.668852
40.973425
23.714900
16.601682
11.525750
9.198785
7.584691
7.740855
7.693768
7.765889
7.549524
7.668734
7.855892
7.714629
7.880926
8.056760
8.392930
8.539557
9.297729
9.150505
9.448528
9.775758
9.349585
8.637905
8.437634
8.658767
7.785559
7.724762
7.245541
6.962419
6.646514
6.369948
6.107688
6.194711
6.355643
6.094575
5.897880
6.063581
6.066561
5.386472
5.864501
5.654693
5.567670
##ZVALUE=290
1.071692
1.306534
1.138449
1.059771
1.142621
1.310706
1.316667
1.279712
1.227856
1.308918
1.128912
1.266599
1.361966
1.237988
1.346469
1.528859
1.334548
1.879930
1.664758
1.805425
1.786947
1.929998
2.093911
2.257824
2.508759
2.837777
3.869534
11.892915
57.353973
137.507915
330.826640
573.911667
986.719728
1015.805006
1015.805006
1015.805006
1015.805006
1015.805006
1015.805006
975.183845
564.754605
330.662727
136.487484
63.183904
29.958487
32.228827
51.014423
67.352653
94.990730
116.813779
135.868788
139.468908
137.151480
126.256943
103.594661
83.856583
56.150556
40.409565
26.040673
18.329620
11.497736
9.658933
8.319616
7.953644
7.804632
7.554889
7.735491
7.864833
8.484721
8.183718
8.983612
8.942485
9.521842
9.279847
9.171963
9.150505
8.422732
8.287430
7.911921
7.514954
7.223487
7.003546
6.767511
6.441474
6.213784
6.246567
5.773902
5.842447
5.695820
5.650520
5.809665
5.659461
5.738735
5.631447
5.578995
5.609989
##ZVALUE=295
0.884533
1.046658
0.993609
1.059771
1.019835
1.139641
1.102686
1.205802
1.166463
1.132488
1.156926
1.198649
1.194477
1.417994
1.353621
1.460910
1.389980
1.518726
1.497865
1.510978
1.733899
1.692772
1.859665
1.926422
2.038479
2.266765
2.393723
2.618432
3.095865
4.934669
19.007921
84.067583
195.691586
475.441813
785.529613
1015.805006
1015.805006
1015.805006
1015.805006
1015.805006
1015.805006
1015.805006
826.513767
428.651571
223.266482
78.351498
36.702752
24.641752
30.847788
48.377514
65.387487
91.202855
110.112429
128.417611
135.273933
133.218765
119.612813
99.618435
79.638958
55.106878
41.074753
24.895668
17.377734
11.689663
9.777546
8.376837
8.125901
8.183718
8.319616
8.685589
9.075999
8.890629
8.922815
9.395480
8.963943
8.765459
8.352995
7.658601
7.671714
7.306933
6.744862
6.862879
6.632805
6.420612
6.486773
6.092787
6.255507
6.103516
5.651712
5.600452
5.741715
5.997419
5.513430
5.529523
5.339980
5.248785
##ZVALUE=300
1.082420
1.106858
0.929832
0.935793
0.907779
0.917912
1.095533
1.267791
1.026988
1.166463
1.247525
1.302958
1.171827
1.250505
1.392961
1.206994
1.155734
1.226664
1.268983
1.204610
1.359582
1.641512
1.571774
1.474619
1.710653
1.913905
1.935959
2.143979
2.287626
2.519488
2.848506
3.469586
12.771487
43.816566
154.617429
307.112932
653.238893
981.568694
1015.805602
1015.805602
1015.805602
1015.805602
1015.805602
1015.805602
966.761708
632.241964
307.600498
157.884955
52.960515
25.116801
20.759702
27.492642
44.061542
60.223937
83.710551
101.898909
120.387673
129.260421
125.709772
117.468834
97.318888
80.923438
56.723952
41.686893
25.953650
18.565655
12.546778
9.638667
8.662939
8.361936
8.288622
8.780956
8.812547
8.665919
8.513927
8.529425
7.926822
7.421970
7.029772
6.942749
6.789565
6.129742
6.255507
6.399751
5.881786
6.080866
5.997419
5.756617
5.622506
5.446672
5.554557
5.370975
4.936457
5.385876
5.357862
5.118847
##ZVALUE=305
0.896454
0.970960
0.919700
0.963807
0.884533
0.964999
0.963807
0.942945
1.098514
1.221895
1.055598
1.021624
1.164675
1.162887
1.159906
1.180768
1.105666
1.176596
1.286864
1.223683
1.381636
1.408458
1.439452
1.561642
1.587868
1.729727
1.636744
1.784563
1.949668
2.018809
2.164841
2.246499
2.670884
2.856851
6.513596
24.777651
103.091598
228.376985
522.288680
822.356939
1015.805006
1015.805006
1015.805006
1015.805006
1015.805006
1015.805006
1015.805006
815.902948
419.697762
228.432417
87.496638
36.712885
16.957521
18.848777
27.529597
39.876699
61.296821
79.088807
100.595951
114.181638
121.330619
121.960640
109.958649
96.433759
73.162913
56.599975
37.820935
26.525855
16.289949
11.826754
9.561777
8.904934
8.447766
8.236766
7.803440
8.206964
7.449985
7.018447
7.157922
6.832480
6.278753
6.236434
6.258488
6.171465
5.714893
5.643964
5.773902
5.618930
5.771518
5.460978
4.960895
5.372763
4.885793
4.754663
4.954934
4.636645
##ZVALUE=310
0.938773
1.121759
0.963807
0.883937
0.846982
0.910759
1.031756
1.014471
0.945926
0.949502
1.006722
0.957847
1.022816
1.075864
0.950694
0.955462
0.982881
1.069903
1.023412
1.309514
1.392961
1.419783
1.091957
1.394749
1.601577
1.482964
1.361966
1.662970
1.692772
1.773834
1.870990
2.001524
1.907945
2.280474
2.412796
2.841949
3.224611
12.922883
47.231913
164.257884
332.067609
696.277022
1007.708907
1015.805006
1015.805006
1015.805006
1015.805006
1015.805006
1015.805006
1012.578011
699.764490
341.991782
175.261497
58.647990
23.863912
14.549494
17.016530
25.119781
35.816431
53.120852
70.011616
92.508793
105.292797
113.570690
115.776658
106.106997
94.417930
72.382689
56.598783
37.770867
26.761889
17.271638
12.830496
9.177923
8.766651
7.423759
7.002950
6.706715
6.380677
6.218553
6.047487
5.734563
5.589724
5.500913
5.961657
5.626678
5.478859
5.249977
5.442500
5.357862
5.065799
4.820824
4.974604
4.816651
4.692674
4.819632
##ZVALUE=315
0.892878
0.959635
0.802875
0.801682
0.866652
0.942945
0.757575
0.846982
0.786781
1.036525
1.061559
0.897646
0.962615
0.957847
1.058578
0.986457
1.085997
1.138449
1.131892
1.215935
1.031756
1.305938
1.180768
1.314878
1.331568
1.314878
1.332760
1.426935
1.421571
1.577735
1.585484
1.656413
1.716614
1.729727
2.025962
2.159476
2.277493
2.855659
3.058910
6.343722
23.338795
103.517771
231.345892
526.635051
871.839523
1015.805602
1015.805602
1015.805602
1015.805602
1015.805602
1015.805602
1015.805602
880.824924
463.290811
246.717930
86.084604
34.806728
13.411641
12.803674
16.482472
21.133423
34.417510
47.033429
66.425800
82.618594
99.307895
108.601451
108.028650
102.106929
86.061954
70.964694
52.138567
39.142966
23.632646
16.231537
10.674596
8.482933
6.830692
6.373525
5.689859
5.672574
5.493760
5.503893
5.488992
5.180836
5.266666
5.242825
5.064607
4.946589
5.032420
4.917979
4.752874
4.580617
4.626513
4.564524
4.421473
##ZVALUE=320
0.921488
0.695586
0.839829
0.865459
0.916719
0.830889
1.050830
0.953674
0.953674
0.788569
0.928640
1.058578
0.791550
0.926852
0.986457
1.145601
0.990629
1.001954
0.911951
1.074672
1.032948
1.178980
1.223683
1.070499
1.200438
1.241565
1.172423
1.252890
1.244545
1.466870
1.317859
1.437664
1.594424
1.620650
1.881719
1.916885
2.086759
2.182722
2.483726
2.472997
2.973676
3.207922
14.063716
47.487617
174.752474
350.627899
711.062551
1015.805006
1015.805006
1015.805006
1015.805006
1015.805006
1015.805006
1015.804410
1003.006697
679.347515
312.496424
158.555508
54.622889
21.379590
10.905862
11.242628
14.145970
18.682480
29.417872
40.777922
59.238672
74.174404
92.558861
100.677609
101.245642
96.345544
82.311630
67.537427
48.118830
35.953522
22.044778
15.087724
9.520650
7.424951
5.744696
5.424619
5.227923
4.859567
5.065799
4.906654
4.803538
4.672408
4.798770
4.737973
4.689693
4.654527
4.540682
4.614592
4.316568
4.757643
##ZVALUE=325
0.706911
0.897646
0.932813
0.920892
0.688434
0.743866
0.866652
0.889897
0.919700
0.776649
0.906587
0.775456
0.894666
0.873804
0.836849
0.924468
0.900626
0.941753
0.925660
0.958443
0.994802
0.995994
0.947714
1.109838
0.991821
1.076460
1.223683
1.154542
1.118779
1.284480
1.068711
1.287460
1.548529
1.623631
1.545548
1.690984
1.655817
1.627803
2.020597
1.905560
2.049804
2.402663
2.623796
3.056526
5.561709
34.483671
98.352432
276.398063
504.027605
932.954550
1015.805006
1015.805006
1015.805006
1015.805006
1015.805006
1015.805006
1015.804410
763.520002
466.210842
207.264423
94.438791
26.236773
11.499524
9.505749
9.353757
12.106895
16.953945
28.459430
39.365888
56.486726
70.265532
86.537600
94.034672
95.156431
88.414550
74.039698
61.574578
44.321418
31.590462
19.718409
13.437867
8.785725
6.564856
5.398989
4.962683
5.085468
4.716516
4.560947
4.542470
4.744530
4.513860
4.292727
4.436970
4.317760
4.328489
4.170537
##ZVALUE=330
0.781417
0.756979
0.677705
0.691414
0.690818
0.794530
0.683665
0.661612
0.880957
0.843406
0.928640
0.858903
0.891685
0.797510
0.672936
0.634789
0.880957
0.829697
0.894666
1.086593
0.997782
1.075864
1.019835
1.149774
0.991821
1.070499
0.988841
1.169443
1.072884
1.098514
1.053810
1.226664
1.248717
1.301765
1.281500
1.345873
1.410842
1.445413
1.531839
1.641512
1.814961
1.972914
2.094507
2.130866
2.319813
3.090501
3.473759
15.846491
52.773952
184.069872
362.066627
732.122660
1015.805006
1015.805006
1015.805006
1015.805006
1015.805006
1015.805006
1015.805006
950.115919
616.891980
284.083486
140.795708
46.996474
17.189980
8.434653
8.173585
9.197593
11.384487
17.554760
25.238991
37.912726
51.727891
68.968534
79.870820
87.581873
87.137818
82.148910
71.901679
54.771900
41.587949
27.411580
19.692779
12.471676
9.459853
6.533861
5.558729
4.803538
4.500747
4.439950
4.313588
4.050732
4.125834
4.292727
4.050732
4.413724
##ZVALUE=335
0.773668
0.631809
0.597835
0.691414
0.812411
0.625849
0.749826
0.795722
0.703931
0.738502
0.685453
0.714660
0.886917
0.838637
1.003742
0.766516
0.813603
0.739694
0.821948
0.881553
0.919700
0.841618
0.817776
0.815988
0.965595
1.109838
0.897646
1.067519
1.076460
1.108646
1.356602
1.279712
1.324415
0.976920
1.187921
1.301765
1.446605
1.204610
1.488924
1.564622
1.632571
1.847744
1.741648
1.703501
2.163649
2.121925
2.417564
2.688766
2.917647
7.136464
26.619434
115.201473
251.751542
575.534701
935.883522
1015.805006
1015.805006
1015.805006
1015.805006
1015.805006
1015.805006
1015.805006
767.472982
399.202704
207.746625
71.927905
26.907921
9.485483
8.176565
8.142591
8.683801
11.605620
15.318990
25.220513
34.876466
50.669909
62.766671
75.395703
81.037879
81.363916
76.498985
64.950585
53.584576
39.625764
29.468536
19.374490
13.620853
8.670688
6.658435
5.250573
4.761815
4.349947
4.111528
4.030466
4.410744
4.025698
##ZVALUE=340
0.734925
0.822544
0.649691
0.727773
0.676513
0.692606
0.649691
0.827909
0.745654
0.704527
0.735521
0.745654
0.699759
0.769496
0.668764
0.869632
0.730753
0.842810
0.763535
0.767708
0.823736
1.015663
0.804663
0.817776
0.637770
0.948906
0.952482
0.767708
1.059771
1.141429
1.041889
1.170635
1.111627
0.986457
0.938773
1.044869
1.027584
1.145601
1.140833
1.307726
1.356602
1.523495
1.384616
1.488924
1.628995
1.752973
1.939535
2.021790
2.172589
2.561808
2.765656
3.973842
13.143420
70.209503
177.334547
452.756882
756.506920
1015.805006
1015.805006
1015.805006
1015.805006
1015.805006
1015.805006
1015.805006
920.470953
485.102534
267.400742
104.420781
39.369464
11.418462
8.372664
7.807612
7.581711
8.765459
10.474920
15.860796
22.431612
33.910871
45.398474
60.378909
69.606900
76.009631
76.015592
70.965886
63.724518
50.357580
40.227771
27.391911
20.484924
12.683868
8.966923
6.180406
5.077720
4.276633
4.106760
4.072785
##ZVALUE=345
0.683665
0.656843
0.675917
0.829697
0.783801
0.713468
0.643730
0.751615
0.846982
0.570416
0.813603
0.746846
0.745654
0.549555
0.754595
0.738502
0.822544
0.639558
0.631809
0.865459
0.737906
0.841618
0.778437
0.741482
0.856519
0.824928
0.820756
0.931621
0.995994
0.883937
0.942945
0.737906
0.757575
1.054406
1.002550
1.162887
1.018643
1.165867
1.290441
1.287460
1.224875
1.364946
1.424551
1.395941
1.441836
1.432896
1.688600
1.679659
1.683831
2.014637
1.948476
2.371669
2.452731
2.897978
5.703568
37.565827
106.217861
290.289521
526.106954
959.842801
1015.797853
1015.797853
1015.797853
1015.797853
1015.797853
1015.797853
1015.797853
661.782622
381.018519
148.145556
63.185692
18.238425
9.899735
8.183718
7.553697
7.264614
7.355809
9.539723
12.764931
20.914674
28.984547
42.562485
52.661896
63.475966
68.972707
70.736408
67.916512
59.617758
50.741434
38.989782
29.042959
18.654466
13.640523
8.708835
6.539822
4.965663
##ZVALUE=350
0.719428
0.647902
0.703931
0.643730
0.751615
0.601411
0.870824
0.747442
0.831485
0.806451
0.737906
0.804663
0.705719
0.613928
0.618696
0.676513
0.688434
0.932813
0.690818
0.803471
0.759959
0.697970
0.699759
0.737906
0.792742
0.863671
0.849962
0.917912
0.864863
0.777841
0.958443
0.905991
0.942945
0.884533
1.141429
0.916719
0.998974
1.054406
1.029968
1.275539
1.037717
1.073480
1.240969
1.337528
1.441836
1.669526
1.514554
1.470447
1.566410
1.780987
1.793504
1.833439
2.093911
2.238750
2.466440
2.558827
3.565550
18.851757
62.461495
199.676752
383.449793
766.749978
1015.806794
1015.806794
1015.806794
1015.806794
1015.806794
1015.806794
1015.806794
780.414939
485.841632
220.935941
100.589991
25.603771
10.689497
7.358789
6.914735
6.677508
6.375909
6.809831
8.377433
13.104677
18.187761
27.081966
35.337806
47.992468
55.509806
62.821507
65.286756
62.620640
56.647658
46.251416
37.126541
25.931001
19.395947
12.578964
##ZVALUE=355
0.738502
0.642538
0.753999
0.657439
0.767708
0.706911
0.629425
0.685453
0.743866
0.710487
0.747442
0.783801
0.734925
0.566840
0.739694
0.784993
0.732541
0.706911
0.840425
0.699759
0.800490
0.723600
0.912547
0.788569
0.838637
0.910759
0.857711
0.919700
0.989437
0.804663
0.910759
0.912547
1.128912
0.915527
1.027584
1.227856
0.909567
0.927448
1.095533
1.063943
1.075864
0.975728
1.135468
1.143813
1.097918
1.170635
1.260638
1.222491
1.318455
1.514554
1.619458
1.848936
1.755953
1.984835
1.925826
1.988411
2.220869
2.450943
2.899766
8.522868
32.384992
128.930807
266.864896
565.836430
894.755721
1015.805602
1015.805602
1015.805602
1015.805602
1015.805602
1015.805602
941.699743
605.787635
274.119973
132.322907
37.550926
13.666749
7.544756
6.891489
5.993843
5.770922
5.779862
6.403923
7.799864
10.216832
16.198754
22.079945
32.584667
40.514469
50.431490
56.259632
59.762001
57.615638
51.796436
45.553446
35.043955
##ZVALUE=360
0.649691
0.653863
0.684857
0.607967
0.631809
0.750422
0.574589
0.639558
0.596642
0.661612
0.767708
0.658631
0.756979
0.768900
0.657439
0.786781
0.686646
0.799894
0.792742
0.639558
0.803471
0.883937
0.909567
0.919700
0.912547
0.896454
0.988841
0.922680
0.791550
0.912547
0.864863
0.946522
1.132488
0.792742
0.992417
0.912547
1.002550
1.030564
1.164675
1.061559
1.067519
1.161695
1.050830
0.963807
1.166463
1.239777
1.293421
1.348853
1.282692
1.447797
1.466870
1.555681
1.665950
1.609921
1.742840
1.866817
2.064705
2.121925
2.480745
2.768636
2.852678
4.542470
13.771653
65.203905
162.459016
416.060686
702.781677
1015.805006
1015.805006
1015.805006
1015.805006
1015.805006
1015.805006
1015.805006
722.727776
358.609557
188.496709
67.280531
24.552941
8.275509
7.052422
6.219745
6.111860
5.557537
5.390644
5.895495
6.457567
9.258986
12.364984
18.416643
24.998784
35.475492
42.817593
50.318837
52.915812
52.454472
##ZVALUE=365
0.534654
0.705719
0.673532
0.765920
0.804663
0.718832
0.599623
0.667572
0.678897
0.653863
0.763535
0.731945
0.654459
0.801682
0.854731
0.692606
0.689626
0.847578
0.763535
0.784993
0.887513
0.751615
0.764728
0.799894
0.797510
0.798702
0.976920
0.869632
0.864863
0.816584
0.905991
0.986457
0.980496
0.912547
1.051426
0.949502
0.984669
0.957847
1.074672
1.007915
1.186728
1.202822
1.129508
0.855923
0.978708
1.264811
1.295805
1.309514
1.263618
1.224875
1.273751
1.494884
1.446605
1.431704
1.466870
1.384616
1.653433
1.893640
1.959801
2.182722
2.273917
2.480745
2.776980
3.445745
6.360412
35.859942
100.207925
272.971988
508.582592
956.299901
1015.805006
1015.805006
1015.805006
1015.805006
1015.805006
1015.805006
862.416625
472.599864
258.466005
94.076991
36.220551
10.110736
6.612539
5.994439
5.759597
5.112886
5.150437
4.711747
5.179644
5.518794
6.930828
11.112690
15.095472
22.447705
28.702617
37.410855
##ZVALUE=370
0.591874
0.740886
0.421405
0.527501
0.783801
0.650883
0.627637
0.712872
0.763535
0.672936
0.740886
0.736713
0.903606
0.659823
0.682473
0.837445
0.764728
0.792742
0.732541
0.775456
0.719428
0.850558
0.711679
0.862479
0.837445
0.787973
0.908971
0.786781
0.901818
0.982881
0.898838
0.909567
0.954866
0.956655
0.850558
0.899434
1.056790
0.975728
1.008511
0.872612
0.915527
1.124740
0.919700
1.102686
1.104474
0.936985
1.102686
1.132488
1.098514
1.176000
1.145601
1.165867
1.325607
1.277924
1.389980
1.491904
1.466870
1.618862
1.629591
1.671910
1.965761
1.928806
2.127886
2.148747
2.538562
2.767444
3.793836
18.058419
59.923530
194.331408
384.508967
754.146576
1015.797853
1015.797853
1015.797853
1015.797853
1015.797853
1015.797853
1015.797853
626.210570
351.844430
136.526823
58.473945
16.044974
7.173419
5.900860
5.602837
5.080700
4.695654
4.530549
4.332662
4.337430
4.774928
6.097555
8.483529
13.336539
##ZVALUE=375
0.590682
0.692606
0.526905
0.690818
0.570416
0.375509
0.613928
0.459552
0.363588
0.565648
0.605583
0.668764
0.667572
0.639558
0.503659
0.543594
0.583529
0.687838
0.640750
0.680685
0.636578
0.555515
0.554919
0.608563
0.613928
0.646710
0.636578
0.666976
0.800490
0.700951
0.740886
0.606775
0.761747
0.810623
0.811815
0.790954
0.845790
0.800490
0.882745
1.012683
0.820756
0.911951
0.695586
0.738502
0.898838
0.906587
0.902414
1.053810
0.879765
1.010895
1.035929
0.937581
1.031756
1.073480
1.084805
0.939965
1.185536
1.356602
1.324415
1.392961
1.382828
1.483560
1.580715
1.415610
1.628995
1.779795
2.236962
2.358556
2.823472
8.265972
30.061603
114.788413
252.193809
578.679442
908.709764
1015.733480
1015.733480
1015.733480
1015.733480
1015.733480
1015.733480
753.997564
478.648543
234.409571
116.186738
35.065413
12.570620
5.910993
5.152822
4.577637
4.379749
4.305840
3.851652
3.777742
3.824830
4.192591
##ZVALUE=380
0.542998
0.574589
0.433922
0.539422
0.442863
0.522733
0.427961
0.464916
0.547767
0.460744
0.564456
0.546575
0.546575
0.566840
0.588894
0.486970
0.494719
0.487566
0.559688
0.618696
0.618696
0.482798
0.619888
0.691414
0.679493
0.558496
0.721812
0.536442
0.527501
0.552535
0.667572
0.605583
0.680685
0.561476
0.817776
0.687838
0.621676
0.605583
0.757575
0.809431
0.637770
0.685453
0.825524
0.641942
0.761747
0.840425
0.772476
0.841618
0.721812
0.850558
0.853539
0.886917
0.884533
0.793934
0.958443
0.951886
0.955462
1.132488
1.210570
1.149774
1.104474
1.099706
1.312494
1.297593
1.646876
1.508594
1.691580
1.911521
2.275705
2.300739
3.108978
4.491806
22.382736
70.264935
220.902562
412.172675
802.384019
1015.712023
1015.712023
1015.712023
1015.712023
1015.712023
1015.712023
979.810953
582.448840
343.016982
141.874552
62.440634
16.158819
6.555915
4.739761
4.509687
4.036427
3.827810
3.734827
3.470778
##ZVALUE=385
0.597835
0.559688
0.523925
0.538826
0.594854
0.565648
0.715852
0.466704
0.703931
0.547767
0.635982
0.583529
0.607967
0.759959
0.647902
0.539422
0.567436
0.700951
0.613928
0.573993
0.933409
0.805855
0.639558
0.703931
0.626445
0.743866
0.614524
0.462532
0.647902
0.668764
0.746846
0.727773
0.615716
0.621676
0.788569
0.708699
0.772476
0.783801
0.704527
0.840425
0.759959
0.672936
0.811815
0.700951
0.886917
0.781417
0.880957
0.983477
0.855923
0.816584
0.777841
0.871420
0.874996
0.927448
0.885725
0.942945
0.990629
1.141429
1.103878
0.972748
1.116991
1.219511
1.319647
1.346469
1.336932
1.264811
1.558661
1.662970
1.813769
2.015829
2.218485
2.405643
2.589822
3.105998
7.950664
46.796799
123.937726
321.226716
568.614006
982.881784
1015.805006
1015.805006
1015.805006
1015.805006
1015.805006
1015.805006
810.925961
439.557433
247.508883
100.743771
39.471984
9.201765
5.179644
4.169941
4.156828
3.959537
##ZVALUE=390
0.580549
0.468493
0.595450
0.598431
0.391603
0.687838
0.503659
0.548959
0.688434
0.655651
0.497699
0.449419
0.563860
0.552535
0.488758
0.827909
0.659823
0.563860
0.772476
0.667572
0.753999
0.637770
0.738502
0.620484
0.565648
0.638962
0.614524
0.615716
0.693798
0.630617
0.595450
0.795722
0.620484
0.595450
0.669956
0.721812
0.773668
0.649691
0.628829
0.760555
0.700951
0.801682
0.782609
0.878572
0.886917
0.923872
0.874996
0.662804
0.820756
0.926852
0.816584
0.863671
0.980496
1.088977
0.929832
1.022816
0.812411
0.912547
0.963807
1.077652
1.038909
1.048446
1.104474
1.187921
1.229644
1.195669
1.340508
1.559854
1.542568
1.914501
2.044439
2.238750
2.198815
2.329946
2.470613
2.755523
4.258752
23.825765
79.535842
252.719522
478.878617
906.416774
1015.805006
1015.805006
1015.805006
1015.805006
1015.805006
1015.805006
1004.664898
632.417798
364.642739
146.657825
64.487457
15.848875
6.367564
4.369617
##ZVALUE=395
0.577569
0.407696
0.620484
0.632405
0.634789
0.447631
0.518560
0.728965
0.450611
0.504851
0.592470
0.607967
0.574589
0.669956
0.508428
0.534654
0.563860
0.564456
0.496507
0.609756
0.496507
0.521541
0.539422
0.604987
0.520945
0.627637
0.595450
0.726581
0.486970
0.690818
0.404716
0.672936
0.572801
0.739694
0.615716
0.703931
0.626445
0.641942
0.688434
0.681877
0.695586
0.452995
0.686646
0.748634
0.761747
0.934601
0.796914
0.783801
0.803471
0.833869
0.723600
0.832677
0.859499
0.925660
0.771880
0.897646
0.841618
0.951886
0.866652
0.955462
1.076460
0.974536
1.017451
0.992417
1.091957
1.054406
1.304746
1.634955
1.628995
1.775622
1.937747
1.960993
2.021790
1.965761
1.852512
2.101660
2.385974
2.525449
2.889633
11.658669
45.698881
170.027614
341.828465
693.155527
988.917947
1015.805006
1015.805006
1015.805006
1015.805006
1015.805006
1015.805006
767.852664
483.035445
101.114511
90.528727
30.086637
##ZVALUE=400
0.456572
0.592470
0.500679
0.531673
0.544786
0.536442
0.629425
0.411868
0.553727
0.478625
0.615716
0.473857
0.450611
0.667572
0.496507
0.629425
0.719428
0.589490
0.638962
0.553727
0.502467
0.560880
0.529885
0.472665
0.617504
0.714660
0.623465
0.607967
0.620484
0.689626
0.743866
0.677705
0.589490
0.564456
0.730753
0.671744
0.599623
0.568628
0.761747
0.734925
0.730753
0.699759
0.785589
0.818968
0.806451
0.753999
0.832677
0.678897
0.646710
0.714660
0.790954
0.894666
0.836849
0.846982
0.791550
1.006722
0.912547
0.916719
0.983477
1.000762
0.999570
1.033545
1.027584
1.036525
1.125932
1.210570
1.301765
1.386404
1.473427
1.544952
1.751781
1.876950
1.595616
1.787543
1.698732
1.746416
1.809597
1.967549
2.048612
2.384782
2.916455
5.193949
28.085709
83.774924
246.405602
459.202528
872.221589
1015.805006
1015.805006
1015.805006
1015.805006
1015.805006
1015.805006
964.825749
550.462604
328.741670
##END
