##TITLE=
##FORMAT=SPECTACLE-ASCII V-1.2
##DATA TYPE=ULTRAVIOLET SPECTRUM
##SECOND TYPE=ULTRAVIOLET SPECTRUM
##DATE=09/27/17
##TIME=11:48:04
##SPECTROMETER/DATA SYSTEM=SPECTACLE
##XUNITS=NM EM
##YUNITS=ENERGY
##YFACTOR=1
##FIRSTX=220
##LASTX=410
##NPOINTS=96
##3DDATA=Equidistant
##ZUNITS=NM EX
##FIRSTZ=210
##LASTZ=400
##ZPOINTS=39
##XYDATA=(Y..Y)
##ZVALUE=210
4.483461
4.762411
5.101562
3.914833
3.901720
4.741549
4.206896
4.878640
4.310608
4.129410
4.267693
3.872514
4.172921
4.054904
3.705621
4.782677
3.868937
4.124641
4.830956
4.623532
4.693866
5.764961
5.122423
5.369782
5.736947
4.971623
5.488992
5.531907
5.747676
5.604625
5.693436
6.195903
6.483793
6.594658
7.292628
7.329583
7.063746
6.161928
7.306933
6.583929
7.096529
6.835461
7.900596
7.024407
7.306933
7.158518
7.436872
7.064939
6.985664
7.270575
7.294416
7.027984
8.575916
7.749796
7.796884
7.813573
8.448958
9.007454
7.940531
7.913709
8.101463
7.924438
7.704496
7.470846
8.865595
7.842779
9.239912
9.330511
11.052489
11.530519
12.414455
13.216734
15.995502
17.845631
19.192696
18.871427
19.772649
18.083453
19.410849
17.307997
16.265512
16.099811
12.703538
11.659861
10.906458
9.033680
8.985996
7.960796
7.052422
7.753968
6.570816
7.356405
7.976890
8.234978
8.068681
8.493662
##ZVALUE=215
12.171865
11.486411
10.335445
8.970499
8.795857
8.249879
7.646680
8.102655
7.531643
7.736683
7.692575
6.698966
6.524920
5.255938
4.634857
4.279613
4.158616
4.688501
4.997849
4.460812
5.192757
5.812645
5.527735
5.646944
5.462766
5.860925
5.292892
6.613731
6.037951
7.034540
6.589890
6.124973
6.558895
7.396936
6.721616
6.927848
6.958842
6.850958
7.555485
7.319450
7.224679
7.077456
7.675886
7.280707
8.096695
7.220507
7.248521
8.010864
7.341504
7.873774
8.094907
8.595586
8.394718
8.573532
8.477569
8.826852
8.075833
8.829832
8.694530
9.502769
8.389950
9.562969
9.683967
8.623600
8.890629
9.017587
9.070635
10.907650
10.843873
11.124611
12.738705
14.465451
14.899969
17.359853
18.860698
19.413829
19.280910
17.370582
18.397570
15.829802
15.505552
13.668537
11.728406
11.711717
12.023449
9.439588
9.324551
8.470416
8.312464
7.355809
8.067489
7.642508
7.354617
7.436872
7.184744
7.344484
##ZVALUE=220
32.002926
33.051968
36.052465
35.241842
33.058524
28.149486
22.420883
17.463565
13.991594
15.104413
15.513897
15.859604
14.986992
14.239550
11.537671
8.998513
7.427931
5.922914
5.859733
5.186796
5.269647
5.331635
5.419850
5.699992
6.113648
5.907416
6.399751
6.521940
6.504655
6.485581
6.387830
7.198453
6.902814
7.362962
7.889867
6.658435
8.099675
8.149743
7.344484
8.376837
8.048415
8.199811
8.975863
8.662939
8.395910
8.818507
8.825660
8.721948
8.163452
8.790493
8.722544
9.470582
9.523630
9.829998
9.661913
9.623766
9.779930
9.781718
9.623766
10.165572
9.709597
10.667443
9.384751
9.749532
9.894967
10.887980
10.642409
10.400414
12.382865
12.796521
13.886690
15.734434
16.419888
18.349886
20.383596
17.566681
20.122528
19.372702
19.107461
17.056465
16.779900
16.209483
14.395714
12.017488
13.002753
10.428429
9.771585
8.276701
8.288622
10.274649
9.002686
7.722974
8.213520
8.285642
8.665919
8.093715
##ZVALUE=225
48.377514
53.028464
67.436695
87.156892
99.188685
98.316669
89.898705
69.923997
58.299899
43.669939
33.138990
27.092695
29.591918
31.109452
29.121637
28.030872
21.601915
18.735528
13.805628
10.874867
8.045435
5.538464
5.986691
6.364584
6.252527
6.298423
6.737709
7.536411
7.146597
7.271767
7.194877
7.329583
7.216930
8.249879
7.630587
8.861423
8.453727
7.895827
7.932782
9.145737
8.976460
9.210706
9.271502
8.786917
8.770823
9.519458
9.507537
9.784698
9.236932
10.196567
11.337996
10.551810
10.281801
10.585785
10.896921
10.737777
11.456609
12.481809
13.416409
11.587739
12.576580
11.506677
13.266802
12.872815
13.340712
12.328625
13.822913
14.554858
14.306903
14.566779
16.300678
17.559528
19.205809
19.784570
20.472407
21.808743
20.474792
21.295547
17.388463
18.502474
15.941858
15.377998
15.038848
12.869835
12.151599
12.335777
11.303425
12.003779
11.280775
11.019707
11.145473
10.273457
9.801984
10.494590
9.419918
10.972619
##ZVALUE=230
41.797757
43.278933
72.013736
120.777488
159.384608
198.137760
224.306583
229.411721
205.304623
175.345540
122.000575
87.203979
59.129596
50.066710
50.336719
52.241683
55.106878
51.010847
49.191713
37.134886
28.732419
21.612644
14.658570
10.010600
7.622838
7.752776
7.401705
6.730556
8.307695
8.089542
7.275939
7.379651
8.029938
8.968711
7.925630
9.869933
8.377433
8.373857
10.622740
9.570718
9.439588
9.473562
10.250807
10.202527
10.385513
10.282993
10.465980
10.710955
11.719465
11.292696
12.026429
12.420416
12.600422
12.579560
13.646483
14.170408
14.533997
14.631748
15.227795
15.636683
16.456842
16.849637
15.630722
17.216802
16.721487
17.673969
16.661882
17.880797
17.979741
19.498467
19.957423
22.036433
22.075772
24.780631
24.184585
24.998784
24.854541
23.325682
22.480488
22.272468
19.694567
19.386411
18.716455
16.265512
16.902685
16.554594
14.482737
13.660789
14.324784
13.899803
13.755560
13.541579
11.585951
13.166666
12.028813
12.628436
##ZVALUE=235
15.393496
15.082955
38.966537
72.811842
122.843981
206.623673
289.222598
381.413698
417.741537
429.913998
392.372608
319.392681
236.067772
154.849887
111.500621
78.738928
73.303580
78.467727
85.708499
85.224509
80.758929
69.472790
52.352548
41.907430
27.990937
20.717978
13.094544
10.640621
8.764863
10.543466
9.143949
8.675456
9.666681
10.214448
9.534955
10.434985
9.445548
9.956956
9.955764
10.189414
9.588599
9.926558
10.351539
10.424852
10.071993
11.269450
11.074543
11.351705
12.143850
11.696815
12.851954
13.596416
14.915466
14.456511
15.021563
15.160441
17.229915
18.895864
18.469691
19.476414
20.252466
20.784736
20.536780
21.065474
20.305514
19.229650
21.324754
20.971894
22.735000
23.092628
25.754571
24.298429
25.581717
28.311610
27.916431
28.589964
29.513836
27.916431
27.526617
25.737882
24.911761
23.378730
23.238659
23.458600
20.312667
19.091964
19.355416
18.263459
17.030835
17.634630
17.729998
17.026663
17.791986
16.684532
16.732812
16.372800
##ZVALUE=240
3.484488
3.520846
6.784797
20.803809
41.892529
100.953579
174.415708
313.558578
428.120494
537.842512
646.062493
672.651529
620.904565
529.179573
388.543010
277.444720
171.381831
127.215981
100.385547
104.289651
111.226439
117.629766
115.475655
102.249980
84.035993
62.981844
49.106479
33.615828
25.197864
16.522408
12.755990
12.294650
11.470914
12.357831
11.610985
11.500716
10.505915
11.771917
10.406971
11.120439
10.447502
10.635853
10.778904
9.670854
10.056496
11.395812
10.605454
11.240840
12.552738
12.651682
13.721585
13.833642
15.704632
17.944574
15.959740
18.220544
17.073750
19.517541
19.187927
19.327998
21.497607
20.881891
19.775629
21.526814
22.357702
21.120906
23.913980
23.016930
24.930835
24.351478
25.742650
28.098822
28.639436
29.692650
32.010674
31.275749
30.758977
29.334426
29.628873
28.099418
26.470423
26.737452
24.540424
24.140477
22.147894
22.233725
22.803545
20.784736
21.218657
21.947622
19.289851
19.971728
17.870665
19.880533
18.241405
18.934608
##ZVALUE=245
2.567768
2.730489
3.070831
3.082752
4.314780
13.476610
34.482479
93.694925
173.951983
324.167609
472.207665
659.399033
783.800483
842.479467
821.864605
708.631873
572.001934
377.516747
262.210965
155.109763
114.948750
105.790496
115.696788
125.715733
134.264827
125.997663
115.194917
97.557902
75.058937
58.151484
37.935972
27.584434
20.237565
15.640855
12.825727
11.538863
11.422634
11.211634
11.542439
11.073947
10.578632
10.192990
10.123849
10.143518
9.672642
9.527802
10.689497
10.805726
10.722876
11.789799
12.314916
13.499856
12.956858
13.679862
14.134645
15.889406
15.297532
17.222762
16.557574
17.367601
18.535852
19.047856
18.994808
18.675923
18.946528
20.042658
19.890666
20.605922
21.362901
23.895502
22.127628
22.525787
24.453998
25.567412
25.907755
27.183890
26.715994
25.256872
26.626587
23.975968
23.293495
22.096634
22.759438
20.540953
20.513535
20.964742
20.959973
18.943548
19.892454
18.622875
18.948913
19.142628
17.902851
17.774701
17.965436
17.001629
##ZVALUE=250
2.619624
2.667904
2.895594
2.770424
2.719760
3.111959
3.717542
8.403659
31.485558
69.878697
174.467564
297.215581
451.779962
672.642589
820.393562
955.460668
986.379981
893.025994
772.940516
527.116656
361.469984
237.075686
136.937499
106.916428
106.173754
124.798417
140.455961
141.940713
138.510466
127.277970
108.636618
83.149672
64.109564
38.444996
29.049516
17.728806
13.578534
11.556745
10.561943
10.822415
9.647608
9.888411
9.512901
9.088516
9.293556
8.923411
9.647608
10.069609
9.574890
10.764599
11.261702
11.127591
11.959672
11.183619
13.489723
13.151765
13.085604
13.818741
13.336539
15.224814
14.540553
14.932752
15.209913
14.919639
16.298890
16.689897
17.126799
17.673969
19.104481
18.114448
19.698739
20.606518
21.795630
23.254752
23.381710
23.120642
21.566749
20.380616
22.292733
21.091700
20.457506
20.010471
20.082593
19.877553
17.892718
19.105673
18.952489
17.575622
17.129779
17.114878
16.173720
16.698837
16.049743
15.515685
16.532540
17.018914
##ZVALUE=255
2.436638
2.301931
2.392530
2.323985
2.416968
2.463460
2.347827
2.507567
3.402829
5.415678
22.632480
55.443645
112.760663
254.009962
413.090587
662.912726
848.102570
1015.805006
1015.805006
1015.805006
936.332941
763.495564
476.772785
307.272673
166.367888
115.672946
96.209645
106.976628
129.829645
144.078732
146.363974
148.061514
133.749843
106.435418
85.294843
55.840611
41.006804
24.170876
17.459989
12.047887
9.788871
9.335876
9.293556
9.461641
9.358525
9.018779
8.881688
8.923411
9.156466
9.498000
9.371638
11.190772
9.806752
11.242628
10.380745
11.405945
12.337565
11.816621
12.531877
12.430549
12.117624
13.293624
12.657642
13.256669
14.066696
13.431907
14.668703
14.444590
14.831424
15.887618
16.521811
17.218590
17.574430
18.367767
18.411875
19.058585
18.664598
18.529892
18.726587
17.317533
16.796589
17.665625
16.453862
15.266538
14.652610
15.586615
15.174747
15.029907
13.938546
14.274716
14.516711
14.720559
13.824701
14.422536
13.662577
14.718771
##ZVALUE=260
2.091527
2.054572
2.269745
2.174973
2.163649
2.280474
2.374649
2.316833
2.600551
2.530813
2.841949
3.966689
8.765459
35.367608
81.307888
197.313428
344.571471
598.701835
816.248655
1015.805006
1015.805006
1015.805006
1015.805006
944.741964
636.287928
428.686738
243.461728
150.304437
91.794729
88.712573
101.962686
129.956603
143.695474
156.843662
149.138570
129.196644
110.472441
82.893968
60.410500
38.595796
25.100708
15.874505
11.608601
8.832812
8.358955
8.676648
8.346438
8.300543
9.440780
9.205937
9.703636
10.399818
9.965897
10.123849
10.689497
11.332631
10.687709
11.308789
11.729598
11.879802
12.094975
12.308955
12.883544
11.788607
12.399554
12.620687
13.220906
14.018416
14.552474
14.989972
14.897585
15.829802
15.837550
16.421676
17.509460
17.361641
17.287731
16.542673
16.193986
15.202761
15.833974
15.079975
14.749765
14.091730
14.602542
14.494658
13.174415
14.076829
13.796687
12.937784
13.177991
13.296604
12.446642
13.437867
12.856722
12.530684
##ZVALUE=265
2.124906
2.019405
1.976490
2.063513
1.931787
1.798868
2.109408
2.108812
2.234578
2.345443
2.465844
2.568960
2.989769
3.079772
15.670657
21.217465
67.423582
250.186920
296.081901
552.906990
800.904036
1015.805006
1015.805006
1015.805006
1015.805006
1015.805006
600.084662
583.157539
342.379808
202.465653
103.009939
78.882575
87.438822
110.474825
134.902596
148.421526
157.446861
148.410797
133.433938
110.732913
79.999566
58.675408
37.213564
25.311708
14.518499
10.727644
9.026527
8.997917
8.972883
9.235740
9.476542
10.138750
10.843873
10.268688
10.971427
10.784864
11.171699
11.341572
11.908412
11.315942
12.144446
11.827946
12.481809
12.015700
12.254715
12.085438
13.023615
13.515949
14.002919
13.419986
14.660954
15.211701
15.493631
15.766621
16.090870
16.568899
15.483499
14.757514
14.700890
14.343858
15.376806
13.369918
13.244748
13.323426
12.964606
12.814999
12.888908
12.444854
12.031794
12.711883
12.153983
12.196898
12.005568
11.666417
11.805892
12.039542
##ZVALUE=270
1.776814
1.939535
1.809597
1.948476
1.743436
2.152920
2.001524
1.970530
2.417564
2.142787
2.133846
2.479553
2.169609
2.453923
2.413988
3.104806
3.688931
12.496710
34.063458
111.968517
223.672986
411.618948
751.692653
1006.960869
1015.805006
1015.805006
1015.805006
1015.805006
1015.805006
814.460516
487.673879
301.586986
141.637921
83.944798
66.713691
82.384944
111.151934
133.372545
150.744915
154.892802
149.580836
133.570433
108.160973
84.382892
56.393743
39.725900
23.931861
16.701818
12.305975
10.507703
9.643435
10.859966
10.441542
10.864735
10.627508
11.560917
11.743903
11.659861
12.617707
12.568831
12.488961
12.538433
12.394786
12.859702
12.693405
13.031960
13.097525
13.665557
13.265610
13.202429
14.137626
14.078617
14.530420
15.013814
14.863610
14.541745
14.873743
14.659762
13.847947
14.339685
12.971759
13.404489
12.836456
12.465715
12.101531
12.095571
12.039542
12.025833
11.581779
12.069941
11.426806
11.436939
11.596680
11.195540
11.438727
11.181831
##ZVALUE=275
1.813769
1.622438
1.589656
1.811981
1.704693
1.841784
1.709461
1.956820
1.945496
1.964569
2.092719
2.311468
2.122521
2.187490
2.223849
2.227426
2.571940
2.739429
2.912879
4.727840
22.201538
63.022971
193.156600
366.665721
690.878034
955.556631
1015.805006
1015.805006
1015.805006
1015.805006
1015.805006
984.311700
710.085630
377.939939
212.878585
92.853904
59.257746
62.987804
82.071424
108.983517
128.907561
148.041844
154.281855
147.660971
133.401752
105.483532
85.662603
58.596730
42.188764
25.912523
18.420815
13.785958
12.241602
11.285543
11.380911
11.741519
12.855530
12.602806
12.826920
13.184547
13.676882
13.230443
13.718605
13.656616
13.774633
13.620853
14.006495
13.642907
13.559461
14.337897
14.529824
14.360547
14.454722
14.749765
14.571548
15.241504
14.686584
14.321804
13.450980
13.691783
13.596416
12.964606
12.564659
12.055635
12.123585
11.680722
11.293888
11.280775
11.016726
11.591911
10.869503
10.877848
10.440946
10.697842
10.803938
10.836720
##ZVALUE=280
1.517534
1.613498
1.419783
1.644492
1.624823
1.590848
1.558661
1.718998
1.778603
1.755953
1.735687
1.784563
1.986623
1.976490
2.152920
2.135634
2.178550
2.365708
2.449751
2.502799
3.045797
3.565550
13.361573
42.448640
138.614774
264.825821
523.687601
784.691572
1015.805006
1015.805006
1015.805006
1015.805006
1015.805006
1015.804410
857.098699
484.174490
286.170840
124.987960
66.570640
46.243668
57.040453
84.254742
105.290413
132.405758
145.642757
150.888562
146.340728
129.289627
109.982491
82.630515
62.658787
41.269660
28.955936
18.960834
15.586615
13.610721
13.071895
14.083982
13.989806
14.106631
14.443994
14.402866
14.521480
14.297962
14.422536
14.113784
14.037490
14.416575
14.892817
14.844537
14.763474
15.067458
15.132427
14.584661
15.137792
15.290976
14.808774
13.770461
13.811588
13.516545
13.049841
12.732744
12.159944
11.681914
11.722445
11.253953
11.245608
11.533499
10.838509
10.832548
10.725856
10.490417
10.501742
10.537505
10.543466
10.214448
##ZVALUE=285
1.485944
1.448989
1.343489
1.524687
1.369715
1.385808
1.581907
1.580715
1.754761
1.802444
1.653433
1.646876
1.784563
1.935959
1.740456
1.917481
1.857877
2.035499
1.947880
2.344847
2.554655
2.352595
2.720952
3.128648
7.099509
22.733808
77.080727
167.929530
380.600691
610.227585
888.631940
1015.798450
1015.798450
1015.798450
1015.798450
1015.798450
1015.798450
666.309595
414.905548
197.911859
98.323822
43.322444
39.032698
56.848526
75.905919
105.790496
123.783946
142.625570
149.927735
144.079924
134.096742
111.029744
90.766549
64.518452
46.970844
30.530691
22.631884
17.652512
16.726851
15.483499
15.490651
15.615821
15.677810
15.596747
15.322566
15.864968
15.882850
15.723705
15.785694
15.648603
16.195774
15.723705
15.869737
15.377998
14.875531
14.790893
14.831424
14.705658
14.206767
13.749599
13.020635
13.090968
12.482405
12.360811
12.153983
11.828542
11.139512
11.313558
11.385679
11.002421
10.752678
10.329485
10.574460
10.281801
10.362864
10.114908
##ZVALUE=290
1.344681
1.469851
1.549721
1.388788
1.455545
1.362562
1.259446
1.372695
1.575947
1.604557
1.554489
1.614690
1.580715
1.559854
1.571774
1.860857
1.819730
1.799464
1.934767
1.905560
1.959801
2.003908
2.069473
2.428889
2.619624
3.070831
3.480911
12.427568
36.281943
116.375685
229.199529
498.517752
770.621896
1015.805006
1015.805006
1015.805006
1015.805006
1015.805006
1015.805006
836.878419
550.708771
276.025534
144.457817
54.478645
31.953454
36.279559
50.698519
76.273680
96.369982
120.954514
138.323903
147.757530
145.290494
131.096840
113.117695
85.444450
67.491531
46.562552
35.637617
25.636554
21.435618
18.335581
17.867684
17.437935
16.365647
17.021894
16.499758
16.875863
17.204881
17.019510
17.078519
16.692877
17.420650
16.837716
15.644431
15.981793
15.298724
14.931560
14.605522
14.109612
13.758540
13.688803
13.242960
12.661815
12.629628
11.570454
12.366772
11.275411
11.256933
11.203885
10.956526
10.717511
10.459423
10.776520
10.224581
9.928942
##ZVALUE=295
1.529455
1.411438
1.609921
1.605749
1.571774
1.636744
1.543760
1.585484
1.604557
1.682639
1.613498
1.610518
1.614690
1.727939
1.631975
1.837611
1.896620
1.912713
2.112985
2.142787
2.128482
2.281666
2.067685
2.323985
2.486706
2.740622
2.930760
3.177524
3.355742
5.165935
21.690726
63.160658
149.393678
367.537737
621.385574
1001.494527
1016.011834
1016.011834
1016.011834
1016.011834
1016.011834
988.821983
703.630447
363.024473
202.369690
76.447725
36.318898
25.257468
32.110810
51.177740
68.890452
95.990896
116.298795
134.258866
144.075751
141.867995
129.883885
108.039975
90.556741
66.022873
51.310658
35.757422
27.458668
21.610856
19.885898
18.612742
18.207431
18.042922
18.300414
17.872453
17.903447
17.372966
17.134547
17.402768
16.634464
16.536713
16.056895
15.293956
14.913678
14.614463
14.270544
13.829470
13.320446
13.147593
13.034940
12.657642
12.657642
11.934638
12.243986
11.815429
11.333823
11.008978
11.202693
10.761619
10.545850
10.220408
##ZVALUE=300
1.209974
1.285672
1.296997
1.378655
1.410842
1.325607
1.291633
1.365542
1.329780
1.298785
1.279712
1.302958
1.348853
1.437664
1.508594
1.513958
1.528859
1.432896
1.676679
1.545548
1.693964
1.871586
1.790524
1.759529
1.916885
1.870990
2.093911
2.095699
2.340674
2.558827
2.747774
3.287792
7.252693
39.321780
98.239779
258.698463
461.866856
845.403671
1015.805602
1015.805602
1015.805602
1015.805602
1015.805602
1015.805602
889.182091
501.663685
300.481915
132.886767
62.369704
25.962591
23.509860
34.145713
46.535730
68.881512
88.145733
114.690661
129.562616
139.147639
136.988759
125.729442
111.590624
86.338520
70.008636
49.818754
37.758946
26.514530
22.802949
19.919872
18.424988
17.950535
17.941594
17.348528
16.966462
16.456842
17.114878
16.042590
15.842915
15.446544
14.666915
14.420748
14.180541
13.391972
13.370514
13.311505
12.824535
11.954904
12.373924
11.938810
11.762977
11.460781
11.093616
10.974407
10.701418
10.410547
10.435581
10.256767
##ZVALUE=305
1.262426
1.161695
1.285672
1.100898
1.329780
1.177788
1.264811
1.093745
1.271963
1.233816
1.266599
1.157522
1.264811
1.258850
1.347661
1.242757
1.298785
1.537800
1.422763
1.585484
1.652837
1.489520
1.439452
1.570582
1.699924
2.001524
2.022982
1.953840
2.149940
2.006888
2.279878
2.524853
2.697706
3.006458
4.473925
23.574829
64.219832
191.671848
357.575417
694.816709
984.482765
1015.802026
1015.802026
1015.802026
1015.802026
1015.802026
1011.800766
664.252043
415.532589
190.342665
95.431805
34.559965
22.224784
24.544597
32.361746
49.177408
65.247416
89.556575
105.205774
124.562979
132.932663
130.201578
121.645927
102.727413
85.798502
62.739849
47.374964
34.908652
26.781559
20.451546
18.125772
17.152429
16.396642
15.691519
15.272498
14.998913
14.917850
14.665723
13.899803
13.760924
13.756752
13.415813
12.855530
12.501478
12.705922
12.382865
12.078881
11.854768
11.222959
11.316538
10.894537
10.874867
10.671616
10.126829
10.161996
9.851456
##ZVALUE=310
1.166463
1.273751
1.204610
1.218915
1.242757
1.265407
1.043677
1.197457
1.229644
1.231432
1.263618
1.228452
1.446605
1.336932
1.145601
1.305938
1.280904
1.326799
1.387596
1.511574
1.405478
1.316667
1.547933
1.507998
1.633763
1.579523
1.617670
1.538992
1.812577
2.059937
1.913905
1.969934
2.032518
2.370477
2.344847
2.898574
3.196001
10.789633
33.660531
114.778876
235.160589
507.494807
810.127854
1015.846729
1015.846729
1015.846729
1015.846729
1015.846729
1015.846729
876.216888
586.459637
295.117497
156.981945
59.462786
28.109550
18.796921
22.126436
31.268001
42.289495
60.773492
77.401996
99.911690
112.819672
121.527910
123.985410
113.419890
102.765560
81.471801
65.051913
44.704676
33.995509
23.980737
20.109415
16.030669
14.883876
13.819933
13.321638
12.943745
12.888908
12.653470
12.485981
11.956692
11.843443
11.742711
11.820793
11.423826
10.924935
11.192560
10.953546
11.319518
10.421872
10.606647
10.079741
10.083914
10.011792
9.738803
##ZVALUE=315
1.003742
1.006722
1.116991
1.069903
1.072884
1.095533
1.075864
0.966787
1.139641
1.164675
1.098514
1.176596
1.205802
1.214743
1.188517
1.180768
1.091957
1.181960
1.115799
1.405478
1.309514
1.220703
1.514554
1.335740
1.505613
1.448989
1.365542
1.552701
1.655817
1.776814
1.673698
1.960993
2.073646
1.990795
1.920462
2.361536
2.413988
2.549887
3.062487
5.070567
17.180443
72.886944
163.485408
382.976532
653.874874
1015.805006
1015.805006
1015.805006
1015.805006
1015.805006
1015.805006
1005.032659
742.361546
396.269560
215.873718
82.743764
36.654472
18.044710
17.095804
21.231771
26.714802
39.862990
52.403808
71.860552
88.365674
105.419755
112.704635
113.428831
107.740760
91.613531
77.371597
56.558847
43.215752
29.982924
21.915436
16.238689
13.805628
12.550950
12.055635
11.422634
11.583567
10.798573
11.274815
10.758638
10.889769
10.492802
10.703802
10.589957
10.285974
10.360479
10.257959
10.068417
9.879470
9.779930
10.190606
9.209514
##ZVALUE=320
0.912547
1.016855
1.048446
0.951886
0.991821
0.901818
1.012683
0.939965
0.955462
0.751615
1.094937
0.867844
0.969768
0.967979
0.788569
1.083612
1.055598
1.189709
1.028776
1.272559
1.067519
1.178980
1.154542
1.286864
1.168847
1.236796
1.305938
1.442432
1.300573
1.389980
1.395941
1.562834
1.562834
1.525879
1.608729
1.668930
2.140999
2.008677
2.101660
2.194643
2.522469
3.154874
8.159876
39.838552
103.815794
282.931924
485.149026
855.354667
1015.676856
1015.676856
1015.676856
1015.676856
1015.676856
1015.676856
914.145708
510.478616
291.861892
124.107599
56.200624
19.587874
13.741851
14.259815
16.929507
22.786856
31.421781
48.153996
62.249899
81.002712
93.857646
104.298592
105.741620
99.602938
88.830590
69.557428
54.904819
37.008524
26.975870
19.252896
14.664531
11.939406
10.551810
10.067821
9.809732
9.990931
9.589791
9.716749
9.787679
9.412766
9.591579
9.290576
9.256601
8.922815
9.466410
8.993745
8.926988
9.061694
##ZVALUE=325
1.050830
1.091957
0.968575
1.086593
1.127720
1.016855
1.045465
0.939965
1.073480
1.100898
1.173615
1.105666
0.952482
0.954866
1.082420
1.018643
1.073480
1.091957
1.151562
1.204610
1.153946
1.239777
1.260638
1.248717
1.331568
1.416802
1.312494
1.302958
1.168847
1.346469
1.386404
1.491904
1.414418
1.606941
1.672506
1.690984
1.749992
1.831651
1.942515
1.980662
2.049804
2.186894
2.513528
2.936721
4.927516
24.814606
70.594549
199.956894
366.183519
702.649951
988.804698
1015.805006
1015.805006
1015.805006
1015.805006
1015.805006
990.102887
616.230965
378.322601
169.628859
78.759789
23.807883
12.429953
10.711551
11.080503
14.085770
18.863678
30.248761
41.440725
60.261488
74.474812
89.196563
96.066594
98.267794
92.770457
77.856779
64.296722
47.455430
35.549998
23.687482
17.362833
12.395978
10.620952
9.700656
9.009838
8.953810
8.938909
8.821487
8.863807
9.028912
8.811951
8.270741
8.738637
8.885860
8.379817
8.831620
##ZVALUE=330
0.993609
0.873804
0.964999
0.934601
0.901818
0.906587
1.060963
0.948906
1.003742
1.041889
0.938773
1.104474
1.128912
0.922680
0.996590
0.981688
0.978708
0.936985
0.917912
1.193881
1.239777
1.172423
1.098514
1.195669
1.149774
1.229644
1.093745
1.080632
1.128912
1.287460
1.323819
1.364946
1.285672
1.413822
1.570582
1.583695
1.543760
1.719594
1.732707
1.754761
1.793504
2.021790
2.035499
2.261996
2.441406
2.624989
3.116727
11.609793
37.114620
126.029849
249.572992
529.005527
811.586976
1015.800834
1015.800834
1015.800834
1015.800834
1015.800834
1015.800834
763.517618
490.524769
228.508711
115.894675
40.144920
15.934706
9.232759
8.583665
10.218620
11.992455
18.938780
26.159883
40.830970
53.531528
70.722699
82.110763
91.151595
91.741681
85.429549
74.288845
58.155656
45.706630
30.878782
23.412704
16.346574
12.827516
10.387897
9.332895
8.888841
8.393526
8.519888
8.488894
8.061528
8.200407
8.559823
8.134842
8.182526
##ZVALUE=335
0.859499
0.857711
0.939965
0.748634
0.880957
0.979900
1.058578
0.874996
1.015663
0.844598
0.961423
0.823736
1.019835
1.039505
1.145601
0.943542
1.024604
1.170635
1.130700
1.104474
1.099706
1.135468
1.022816
1.149774
1.037717
1.071692
1.176000
1.023412
1.228452
1.156926
1.326799
1.285672
1.357794
1.326799
1.334548
1.382828
1.589656
1.513958
1.435876
1.701713
1.667738
1.788735
1.674891
1.768470
1.982450
2.178550
2.110600
2.208948
2.695918
5.864501
18.814802
75.958967
164.809823
384.998918
646.739602
1014.263630
1015.805006
1015.805006
1015.805006
1015.805006
1015.805006
911.813974
622.321963
321.928859
167.963505
56.770444
22.528768
9.623766
8.271933
8.756518
9.561777
12.159944
16.923547
26.351810
37.001967
53.249598
65.037608
77.160597
83.966851
85.036755
81.529617
68.177581
57.200789
42.973757
33.079982
22.627711
17.406940
12.090802
10.363460
9.088516
8.655787
8.267760
7.841587
7.753968
7.992983
7.896423
##ZVALUE=340
0.833869
0.965595
0.924468
1.043677
0.688434
0.762939
0.949502
0.896454
0.800490
0.931621
0.951886
0.919700
1.116991
0.976920
0.929832
1.016855
0.988841
0.997782
0.910759
1.098514
0.992417
1.057982
1.123548
0.984669
1.154542
1.114607
1.150966
1.116991
1.188517
1.218915
1.169443
1.311898
1.263618
1.146793
1.129508
1.249909
1.337528
1.349449
1.329780
1.542568
1.469851
1.474619
1.495481
1.696944
1.652837
1.888871
1.962781
2.031922
2.108812
2.513528
2.516508
3.310442
9.230971
46.499968
118.624568
311.873555
548.426509
947.136879
1015.805006
1015.805006
1015.805006
1015.805006
1015.805006
1015.805006
760.431886
394.494534
218.576789
87.819695
34.681559
11.377931
8.620620
8.468628
8.527637
9.575486
11.776686
17.547607
23.937821
36.149621
47.341585
62.997937
73.008537
79.382658
80.088973
74.090958
67.290664
54.396987
43.896437
31.475425
23.837686
16.569495
12.696981
9.423494
8.304715
7.794499
7.771850
7.756948
##ZVALUE=345
0.865459
0.839829
0.938773
0.794530
0.826716
1.000762
0.838637
0.860691
0.860691
0.936985
0.852942
0.784993
0.881553
0.882745
0.983477
0.890493
0.818968
0.863671
0.912547
0.854731
0.989437
0.963807
0.959635
1.048446
0.966787
0.956655
1.012683
1.105666
1.074672
1.124740
1.107454
1.137853
1.073480
1.052618
1.195669
1.203418
1.097918
1.285672
1.182556
1.300573
1.337528
1.419783
1.539588
1.439452
1.583695
1.461506
1.584888
1.608729
1.881719
1.859665
1.882911
2.173781
2.295971
2.529621
4.680753
25.439858
72.156787
199.033618
368.226767
701.004863
983.579755
1015.805006
1015.805006
1015.805006
1015.805006
1015.805006
886.972547
533.737540
303.620696
118.472576
52.107573
16.904473
9.302497
8.376837
8.013844
7.967949
8.731484
10.786653
14.079809
22.942424
31.854510
45.903921
55.612922
65.726638
72.142482
73.871613
70.996881
63.156486
54.401755
41.934848
32.002926
21.338463
16.272664
11.301637
9.540915
8.126497
##ZVALUE=350
0.844598
0.800490
0.911951
0.840425
0.934601
0.753999
0.722408
0.724792
0.879765
0.822544
0.767708
1.009703
0.879765
0.863671
0.865459
0.833869
0.806451
0.819564
0.922680
0.898838
0.912547
0.970960
0.922680
0.947714
1.027584
0.923872
1.116991
0.930429
0.991821
1.071692
0.979900
1.053810
1.079440
1.147985
1.091957
0.918508
1.102686
1.149774
1.186728
1.183748
1.046658
1.128912
1.176596
1.547933
1.409650
1.238585
1.528859
1.362562
1.433492
1.536608
1.805425
1.673698
2.019405
2.069473
2.154708
2.353787
3.104806
13.078451
42.373538
136.585832
263.843536
543.472767
816.500783
1015.805006
1015.805006
1015.805006
1015.805006
1015.805006
988.143682
608.562827
374.711752
170.807838
78.683496
22.203922
10.325909
7.742643
7.192492
6.839633
7.137656
7.958412
9.613633
14.384985
19.717813
29.857755
38.201809
50.650835
64.719915
66.131949
67.704916
65.400600
59.592724
48.628449
39.808750
29.529929
22.035837
15.588999
##ZVALUE=355
0.802875
0.855923
0.781417
0.969768
0.935793
0.791550
0.786781
0.943542
0.889897
1.056790
0.962615
0.892878
0.952482
0.805855
0.908971
0.739694
0.781417
0.845790
0.902414
0.711679
0.865459
0.904799
1.002550
0.843406
1.002550
0.909567
1.050830
1.059771
0.951886
1.055598
0.965595
0.962615
1.143813
1.025796
1.096725
1.058578
1.201630
1.349449
1.132488
1.099706
1.128912
1.279712
1.216531
1.223683
1.385808
1.296997
1.541972
1.568794
1.573563
1.543760
1.629591
1.564622
1.672506
1.770854
2.018809
2.031922
2.067685
2.251863
2.645850
6.445646
22.375584
87.933540
184.045434
398.087502
634.917617
988.407731
1015.808582
1015.808582
1015.808582
1015.808582
1015.808582
726.040006
462.881923
206.514001
99.101663
29.894710
12.254715
7.675886
7.258654
6.842613
6.563663
6.891489
7.406473
9.335876
12.101531
17.831922
24.157763
34.338832
42.540431
51.857829
57.965517
61.190724
60.146451
54.537654
47.628880
37.340522
##ZVALUE=360
0.720620
0.926852
0.803471
0.983477
0.903606
0.878572
0.907779
0.842810
0.798702
0.962615
0.762939
0.800490
0.852942
1.037717
0.862479
0.811815
0.907779
0.900626
0.912547
0.865459
0.868440
0.985861
0.985861
1.051426
1.017451
0.959635
0.943542
1.127720
1.152754
1.112819
1.176000
1.115799
1.070499
1.014471
0.823736
1.114607
1.103878
1.141429
1.208782
1.180768
1.253486
1.218915
1.209974
1.176000
1.191497
1.447797
1.264811
1.355410
1.283884
1.429915
1.484752
1.586676
1.603961
1.659989
1.777411
1.732707
1.896620
1.848936
2.195835
2.286434
2.530813
3.733635
10.368824
46.447515
111.656785
280.861855
490.159988
857.767463
1015.805006
1015.805006
1015.805006
1015.805006
1015.805006
852.648616
566.960573
277.752876
143.427849
52.053928
20.291805
8.046627
7.625818
6.716847
6.420612
6.481409
6.595850
6.736517
7.807612
10.296702
13.615489
20.803809
27.562976
38.341880
44.923425
51.656961
54.912567
55.411458
##ZVALUE=365
0.830889
0.830889
0.937581
0.902414
0.981688
0.920892
1.053810
0.942945
0.909567
0.927448
0.977516
0.801682
0.834465
0.772476
0.985861
1.020432
0.963807
0.988841
1.014471
1.013875
1.074672
0.974536
1.074672
0.850558
1.007915
1.013875
1.037717
1.089573
1.048446
1.012683
0.932813
1.168847
1.006722
1.032948
1.051426
1.210570
1.137853
1.231432
1.477599
1.299977
1.215935
1.300573
1.111627
1.266599
1.164675
1.461506
1.335740
1.468658
1.309514
1.326799
1.439452
1.460910
1.668930
1.475811
1.547933
1.782775
1.806617
1.921654
1.934767
2.011657
2.034903
2.189875
2.604723
2.795458
4.974604
25.242567
67.421794
182.536840
351.525545
685.251951
962.195992
1015.861630
1015.861630
1015.861630
1015.861630
972.256660
696.491003
386.724472
211.568475
76.591969
29.797554
9.641647
7.122755
6.549954
6.390810
6.115437
5.877614
5.856752
5.845428
6.869435
8.376837
12.402534
16.746521
23.835897
30.887723
39.340854
##ZVALUE=370
0.818968
0.852942
0.821948
0.764728
0.761747
0.724792
0.862479
0.862479
0.888705
0.875592
0.869632
0.819564
0.696778
0.829697
0.964999
0.976920
0.938773
0.721812
0.854731
0.972748
0.705719
0.874996
0.945926
1.045465
1.009703
0.984669
0.897646
0.932813
1.017451
0.908971
0.831485
1.045465
0.944734
0.975728
1.041889
1.099706
1.226664
0.993609
1.167655
1.014471
1.003742
1.012683
1.031756
1.206994
1.051426
1.093745
1.202822
1.204610
1.245737
1.194477
1.569986
1.326799
1.306534
1.365542
1.302958
1.508594
1.497865
1.615882
1.518726
1.713634
1.727939
1.769662
1.900792
1.924634
2.352595
2.485514
3.308654
12.668967
41.319728
135.954618
260.545611
520.322919
788.357854
1015.805006
1015.805006
1015.805006
1015.805006
1015.804410
831.632018
476.640463
271.325707
107.290745
47.156811
13.997555
7.766485
6.036758
5.974770
5.674958
5.463958
5.061626
5.207658
5.482435
5.947948
7.511973
9.954572
14.380813
##ZVALUE=375
0.654459
0.751615
0.849962
0.774860
0.830889
0.893474
0.853539
0.888705
0.912547
0.793934
0.801682
0.745654
0.868440
1.006722
0.801682
0.871420
0.729561
0.829697
0.944734
0.984669
0.936985
0.850558
0.845790
0.842810
0.920892
0.915527
0.866652
0.993609
0.888705
0.961423
1.023412
0.961423
0.907779
0.928640
0.953674
1.145601
1.039505
0.997782
1.038909
1.026988
1.067519
1.240969
1.100898
1.192689
1.117587
1.083612
1.115799
1.013875
1.064539
1.096725
1.121759
1.136661
1.102686
1.377463
1.254678
1.267791
1.308918
1.296997
1.318455
1.487732
1.540780
1.423955
1.531839
1.712441
1.677871
1.815557
1.875758
2.285838
2.612472
6.840825
22.116899
81.398487
176.478624
410.163999
656.376481
999.127626
1015.805006
1015.805006
1015.805006
1015.805006
955.021977
587.643981
370.696783
181.105733
88.914633
27.840734
10.735989
5.709529
5.254745
5.053878
4.876852
4.674792
4.731417
4.701614
4.726648
5.248785
##ZVALUE=380
0.712872
0.807643
0.785589
0.683665
0.752807
0.836849
0.717640
0.792742
0.911951
0.791550
0.765920
0.792742
0.694990
0.892878
0.766516
0.706911
0.688434
0.783801
0.692606
0.768900
0.738502
0.862479
0.837445
0.883937
0.926852
0.858903
1.008511
0.878572
0.905991
0.948906
1.066923
0.908971
1.040697
1.026988
0.894666
0.869632
0.826716
1.042485
0.869632
1.022816
0.944734
0.910759
0.876784
0.972748
0.931621
0.939965
0.936985
1.092553
1.122952
0.972748
1.237988
1.052618
1.159906
1.021624
1.144409
1.111627
1.160502
1.198649
1.177788
1.354814
1.370907
1.258850
1.182556
1.452565
1.387596
1.562834
1.572967
1.817942
1.967549
2.319813
2.392530
3.817677
11.900663
56.918859
135.319829
327.743888
545.256734
886.058807
1015.787721
1015.787721
1015.787721
1015.787721
1015.787721
745.254755
501.125455
246.545672
125.643611
42.955875
16.967654
6.561875
5.211830
4.844666
4.608631
4.301667
4.165769
4.131794
##ZVALUE=385
0.752807
0.865459
0.762939
0.684857
0.765920
0.721812
0.768900
0.689626
0.790954
0.651479
0.797510
0.872612
0.777841
0.815988
0.904799
0.817776
0.817776
0.827909
0.832677
0.840425
0.754595
0.994802
0.751615
1.007915
0.963807
0.996590
0.922680
0.868440
0.868440
0.801682
0.854731
0.851750
0.900626
0.907779
0.797510
0.913739
0.759959
0.890493
0.910759
0.960827
0.904799
0.843406
0.883937
1.096725
0.885725
0.884533
0.907779
0.993609
0.927448
0.951886
0.941753
1.006722
0.982881
0.899434
1.102686
1.060963
1.017451
1.129508
1.094937
1.132488
1.218915
1.221895
1.237988
1.239777
1.328588
1.435876
1.582503
1.718998
1.769662
1.896620
2.104640
2.346635
2.351999
2.777576
6.428957
34.299493
90.097785
236.661434
424.457788
772.794485
1012.777686
1015.805006
1015.805006
1015.805006
1015.805006
914.688110
658.938885
376.204848
208.362937
77.153444
30.166507
8.306503
5.178452
4.878640
4.540682
4.309416
##ZVALUE=390
0.600815
0.566840
0.624657
0.646710
0.557899
0.730753
0.673532
0.755787
0.715852
0.707507
0.758767
0.639558
0.516772
0.552535
0.638962
0.643730
0.691414
0.620484
0.651479
0.752807
0.644922
0.563860
0.609756
0.656843
0.711679
0.713468
0.699759
0.757575
0.690818
0.687838
0.663996
0.846982
0.711679
0.789762
0.793934
0.528693
0.761747
0.599623
0.606775
0.655651
0.839829
0.842810
0.700951
0.639558
0.650883
0.905991
0.709891
0.824928
0.754595
0.834465
0.771880
0.722408
0.847578
0.845790
0.816584
0.889897
0.808835
0.942945
0.845790
0.983477
0.920892
0.947714
1.008511
1.061559
1.091957
1.217723
1.221895
1.354814
1.551509
1.614690
1.849532
1.790524
1.994967
1.972914
2.173781
2.173781
3.264546
17.058849
54.660439
172.452927
331.078768
642.400980
894.019604
1015.677452
1015.677452
1015.677452
1015.677452
1015.677452
830.307603
507.109761
291.531682
117.315650
54.330826
15.846491
6.319880
4.589558
##ZVALUE=395
0.686646
0.647902
0.795722
0.746846
0.767708
0.742674
0.793934
0.720620
0.817776
0.833869
0.725985
0.732541
0.717640
0.659823
0.755787
0.669956
0.809431
0.720620
0.762939
0.941753
0.795722
0.731945
0.604987
0.743866
0.750422
0.624657
0.735521
0.718832
0.786781
0.824928
0.865459
0.896454
0.919700
0.883937
0.974536
0.862479
0.829697
0.911951
0.945926
0.785589
0.943542
0.957847
0.910759
0.892878
0.794530
0.773668
0.922680
0.996590
1.021624
0.924468
0.917912
1.010895
0.960827
1.161695
0.982881
0.964999
0.931621
1.048446
1.052618
1.043677
1.104474
1.069903
1.127720
1.189709
1.236796
1.231432
1.329780
1.436472
1.560450
1.700521
1.584888
1.776814
1.834631
1.762509
2.066493
1.962781
2.072453
2.075434
2.347827
9.247661
33.917427
119.689703
236.819983
482.257009
727.557540
1015.805006
1015.805006
1015.805006
1015.805006
1015.805006
971.558690
607.452989
383.634567
176.338553
82.788467
25.827885
##ZVALUE=400
0.625849
0.702739
0.749826
0.661612
0.787973
0.652671
0.619888
0.810623
0.696778
0.542998
0.778437
0.668764
0.792742
0.724792
0.726581
0.743866
0.686646
0.635982
0.692606
0.793934
0.870824
0.737906
0.669956
0.818968
0.610948
0.752807
0.804663
0.702739
0.846982
0.839829
0.748634
0.731945
0.872612
0.848770
0.741482
0.766516
0.771880
0.902414
0.855923
0.817776
0.690818
0.779629
0.841618
0.833869
0.822544
0.816584
0.951886
0.847578
0.989437
0.890493
0.986457
1.047850
1.048446
0.967979
1.116991
0.990629
1.049638
0.978708
0.955462
1.049638
0.939965
0.988841
1.039505
1.156926
1.076460
1.176596
1.379848
1.267791
1.563430
1.627803
1.622438
1.567602
1.781583
1.751781
1.776814
1.805425
1.843572
1.913905
1.934767
1.992583
2.273917
5.213618
18.126965
68.607926
151.310563
350.081921
572.089553
925.067663
1015.805006
1015.805006
1015.805006
1015.805006
1015.805006
710.209012
463.021994
231.429935
##END
