##TITLE=
##FORMAT=SPECTACLE-ASCII V-1.2
##DATA TYPE=ULTRAVIOLET SPECTRUM
##SECOND TYPE=ULTRAVIOLET SPECTRUM
##DATE=09/27/17
##TIME=11:27:02
##SPECTROMETER/DATA SYSTEM=SPECTACLE
##XUNITS=NM EM
##YUNITS=ENERGY
##YFACTOR=1
##FIRSTX=220
##LASTX=410
##NPOINTS=96
##3DDATA=Equidistant
##ZUNITS=NM EX
##FIRSTZ=210
##LASTZ=400
##ZPOINTS=39
##XYDATA=(Y..Y)
##ZVALUE=210
4.430413
3.681779
5.108714
4.915595
4.462600
4.664660
4.227757
4.506707
4.484653
3.706813
3.931522
3.081560
3.520846
3.528595
3.525615
3.233552
3.590584
3.829598
3.712773
3.883839
3.731847
4.415512
4.019737
4.197955
4.298687
4.716516
4.418492
5.238652
4.458427
4.619956
5.428791
5.563498
4.903674
5.314946
5.450845
5.450845
5.595684
5.604625
5.337000
5.420446
5.605817
5.346537
5.536675
5.840659
6.544590
5.309582
6.411672
5.632639
5.597472
5.907416
6.407499
6.103516
5.925894
5.898476
5.785823
6.533861
6.386638
6.110668
6.155968
6.859899
6.200671
5.902648
6.165504
6.136894
6.060600
6.318688
5.833507
6.829500
7.510781
7.882714
10.697842
10.848641
11.767745
12.019873
13.324618
13.852715
13.553500
13.829470
12.638569
11.488795
10.602474
10.635853
9.168983
9.860992
7.966757
6.805658
6.828904
6.217957
5.456805
5.392432
6.689429
6.222725
6.685853
6.721616
6.181598
8.097887
##ZVALUE=215
10.978580
10.942817
10.630488
9.755492
8.258820
7.736683
7.629991
8.141994
8.519888
7.608533
8.647442
7.102489
5.757809
5.481839
4.840493
4.053712
3.605485
4.225969
4.482865
4.673600
4.766583
4.619956
5.080700
4.650950
5.761981
4.924536
5.094409
5.630851
5.887747
5.153418
5.491972
5.275607
5.564690
5.917549
6.209612
5.631447
5.624890
5.656481
5.682707
6.071925
6.583929
6.039739
7.323623
7.082820
6.152987
6.149411
6.616712
6.623864
6.362796
6.585717
7.072687
7.127523
7.091761
6.439686
6.568432
6.757975
6.621480
7.137656
7.442832
7.054806
7.103682
7.417798
7.225871
6.619692
7.065535
7.400513
7.534623
7.916689
8.073449
8.816719
9.282827
11.166930
12.832880
13.712645
13.704896
13.914704
13.187528
12.892485
13.214946
13.157725
10.777712
10.713935
8.626580
8.900762
9.145737
7.596612
6.846786
7.140636
6.538630
5.803704
6.457567
6.603599
5.557537
6.300807
7.339716
5.744696
##ZVALUE=220
29.042959
30.906796
32.779574
31.719804
28.583407
24.209619
19.783974
17.738938
14.406443
14.748573
14.608502
14.305711
14.530420
12.413859
11.960864
9.087920
7.998943
5.696416
4.990697
4.350543
5.184412
4.227757
4.558563
5.213618
4.458427
4.945993
5.971789
6.082654
5.309582
5.525947
5.729795
5.561709
5.698800
4.924536
5.815625
6.411672
7.152557
6.866455
5.912781
5.352497
6.751418
6.665587
6.154776
6.238818
6.072521
6.844997
6.204844
7.590652
6.618500
6.603599
6.526709
5.986691
6.237626
6.543994
6.919503
6.975532
6.621480
7.700920
7.080436
6.605983
7.614493
7.762909
7.979870
7.500648
7.495880
8.206964
7.276535
7.972717
8.666515
9.437799
10.302663
12.677908
12.542605
13.407469
13.943911
13.486743
14.291406
12.718439
14.192462
12.818575
11.499524
10.400414
9.880662
9.225607
9.490848
7.935762
7.846951
7.592440
7.521510
6.275773
6.781816
6.981492
7.307529
6.650686
6.301999
5.565882
##ZVALUE=225
44.537783
45.238733
61.135888
75.308681
80.022812
78.388453
76.773763
59.266686
46.252608
35.682917
29.799938
27.597547
29.897690
30.833483
30.394793
27.325749
22.873878
19.670725
14.686584
10.741949
7.470846
5.583763
5.051494
5.111694
5.053878
4.860759
5.864501
6.025434
5.815625
5.269647
6.165504
5.432963
5.854964
6.273985
6.787777
6.082654
6.764531
7.492900
6.574988
6.890893
6.589890
6.516576
6.664991
7.231832
6.556511
7.319450
7.100701
7.171631
6.891489
7.122755
7.000566
6.872416
7.208586
7.157922
7.654428
8.240938
7.777810
7.525682
8.447766
8.148551
9.411573
8.983612
9.010434
9.909868
10.175705
10.037422
10.626912
10.109544
11.488795
10.888577
12.063980
13.163686
13.543963
14.900565
15.523434
14.567971
15.550852
15.064478
14.187694
12.521744
12.345910
11.118650
11.746883
9.885430
10.073781
9.165406
9.324551
8.337498
7.607937
8.365512
8.991957
7.106662
7.247925
7.676482
7.878542
7.463694
##ZVALUE=230
35.129786
39.960742
62.029958
97.065568
128.100514
164.640546
190.168619
184.429884
169.753432
134.272575
99.885464
76.006651
53.379536
49.662590
48.747659
50.733685
53.451657
51.576495
46.433806
37.756562
26.984811
20.147562
12.585521
9.400845
7.203817
6.111860
6.069541
5.530715
6.507635
6.005764
6.451607
7.199645
6.157756
6.882548
7.000566
6.539822
7.225871
7.292628
6.784797
8.692741
7.332563
6.973743
8.068681
7.715821
7.531643
7.324815
7.660985
7.090569
7.860661
7.717609
7.709861
8.892417
8.514524
8.239746
9.376407
9.093881
9.032488
9.988546
11.390448
10.954738
11.271834
12.608767
12.690425
12.579560
12.366772
13.060570
12.814999
13.807416
14.842749
14.331937
15.582442
15.385747
17.263889
17.714500
18.271804
19.487739
17.466545
18.093586
15.584826
15.287995
14.294982
14.440417
12.454987
11.484623
12.045503
11.352897
10.263920
9.490848
10.718703
10.438561
10.644794
9.434819
9.868741
9.358525
10.367632
10.617971
##ZVALUE=235
12.219548
14.170408
30.998588
67.024827
112.399459
173.760653
229.486823
308.670998
331.126451
346.270800
312.581658
245.065689
190.794468
125.821829
91.936588
77.007413
72.885752
80.152750
85.541606
85.989833
73.937774
67.477822
47.572851
36.781430
25.586486
17.341971
12.345910
8.812547
7.628798
7.434487
7.719994
7.087588
7.117987
7.519722
6.842613
7.875562
7.859468
7.329583
7.414818
7.481575
7.171631
7.794499
8.271933
7.794499
7.631779
7.262826
7.730722
7.795691
8.509755
8.024573
8.666515
9.372830
9.433627
10.043979
10.224581
10.991693
11.272430
11.970997
12.330413
14.518499
12.315512
14.324784
15.220642
15.967488
14.819503
15.917420
16.424656
16.886592
16.116500
17.697811
17.987490
19.239783
20.381808
19.869804
20.183921
19.903779
19.996762
20.176768
18.584728
17.740726
15.890598
17.022491
15.718937
14.337897
15.261769
13.750792
13.470650
13.671517
13.402700
11.995435
11.095405
13.411641
12.368560
12.290478
10.903478
12.012720
##ZVALUE=240
3.350973
3.475547
6.158948
16.861558
36.503673
87.134838
148.345828
264.122486
352.609754
431.939960
516.141653
518.941879
484.191775
409.891009
308.933854
221.502781
139.320493
112.454891
100.920796
101.359487
113.848448
117.454529
115.950704
102.502704
85.471869
62.940717
49.540997
30.935407
22.046566
14.077425
11.260509
9.916425
9.164810
9.063482
9.011626
7.699728
8.516908
7.766485
8.654594
8.061528
7.375479
8.414984
8.102655
7.517934
7.627606
8.960962
8.266568
7.824898
8.275509
9.209514
8.923411
9.629726
9.326935
9.728670
9.958744
12.050867
11.873841
13.521910
13.888478
13.561845
14.767647
16.107559
16.652942
16.604662
16.381741
17.430782
18.179417
18.873811
18.924475
19.046664
20.282865
21.349788
21.434426
22.942424
22.704601
23.652911
22.061467
22.457838
21.349788
19.723773
18.346906
17.782450
17.324686
15.814900
16.336441
15.515685
15.666485
14.821887
13.632774
14.520884
14.622808
13.440847
13.364553
13.782978
13.733506
13.549924
##ZVALUE=245
2.633929
2.757907
2.813935
2.444983
4.807711
10.376573
33.342838
72.350502
163.510442
254.131556
395.400524
513.458848
598.604679
656.020641
623.289943
532.498956
438.649654
296.003819
212.298632
130.236745
105.009675
101.339817
115.127563
126.553774
134.032965
125.768781
113.674998
95.860958
72.172880
52.829981
36.663413
25.854707
16.193986
11.619925
10.234714
9.159446
8.842945
8.648634
8.281469
8.068681
7.707477
7.460713
8.027554
7.840991
7.450581
7.069707
7.612705
7.418990
8.330941
7.891655
8.372664
8.796453
8.766651
9.002686
9.316802
10.509491
10.819435
11.621714
12.823939
13.565421
12.976527
13.290644
13.443828
14.206767
13.512969
14.706850
16.142726
14.754534
15.274882
16.516447
17.124414
16.984940
18.052459
18.622875
19.667745
18.639565
19.174814
18.083453
17.528534
17.229915
16.605854
14.967918
16.031861
13.863444
14.300942
13.949871
13.069510
13.448000
12.825727
12.473464
12.868643
12.392998
12.175441
12.350678
12.608767
12.236834
##ZVALUE=250
2.286434
2.113581
2.328753
2.007484
2.400875
2.593994
3.625751
7.527471
27.741790
57.607889
142.221451
237.691998
354.218483
526.762009
635.550618
725.357533
742.390752
679.713488
572.598577
397.717953
276.724696
186.101794
112.358928
96.569657
106.659532
120.373964
136.083961
139.634609
132.781863
124.354959
105.871558
79.225898
60.574412
36.966801
25.176406
13.618469
10.970831
7.919669
8.304715
7.804632
7.500648
7.768869
7.357597
7.284880
7.231832
7.128716
6.784797
7.136464
7.342696
7.542968
7.569790
7.349849
7.438660
8.547902
8.826852
7.837415
8.939505
9.580851
9.490848
11.126995
10.432601
9.785891
10.276437
10.605454
10.835528
11.688471
11.342764
11.495948
12.726784
13.254881
13.599992
14.847517
14.401674
14.954805
14.760494
15.133619
14.735460
15.587807
14.722943
13.582706
14.387965
12.505651
12.669563
13.193488
12.053847
10.399818
11.557937
11.259913
11.401772
10.622740
11.264682
10.383725
11.618733
11.090636
10.494590
11.593699
##ZVALUE=255
2.043843
2.295971
2.333522
2.485514
2.143979
2.353787
2.585649
2.779961
2.652407
4.934669
14.472604
48.600435
97.396970
213.218927
329.236984
513.052940
660.235882
804.446936
856.686831
806.647539
714.852810
581.314564
369.500518
238.356590
130.253434
96.573830
89.821815
105.931759
129.102468
140.784979
148.772597
140.708685
127.848983
105.232596
81.884861
55.374503
36.982894
22.140741
13.979673
9.165406
8.375645
6.555915
6.526709
6.692410
6.516576
6.435513
6.941557
6.349683
6.471872
6.563663
6.587505
6.906986
7.172823
6.659627
7.419586
7.474422
7.714629
7.669926
8.588433
8.362532
8.264780
8.772612
9.295940
9.283423
9.635687
9.485483
10.210872
9.831786
10.243654
10.362864
11.116862
12.090802
11.553764
12.240410
11.906624
11.638999
13.194680
12.110472
11.914968
11.211634
10.900497
10.963678
10.616779
11.066794
10.046959
10.188818
10.261536
9.802580
9.634495
9.885430
9.780526
9.290576
9.523630
9.835958
9.774566
10.361671
##ZVALUE=260
1.867414
2.237558
2.178550
1.953840
1.999736
1.932979
2.060533
2.118945
2.323985
2.529621
2.585649
3.154874
9.963512
25.540590
71.955919
142.197609
292.609930
442.262888
644.518733
803.983808
923.337936
933.251977
861.302614
669.644475
497.334003
292.512774
191.224813
107.944608
85.002780
86.121559
104.706883
130.333900
144.760609
149.577856
148.243904
128.696561
111.290812
81.000924
60.264468
35.888553
23.183823
13.612509
8.880496
6.917715
6.256700
6.049871
5.734563
6.027818
6.026626
6.619692
6.794930
6.661415
6.489754
6.516576
6.285906
7.403493
7.540584
7.438660
7.657409
7.980466
8.261800
7.687807
8.374453
8.425713
8.231997
8.381605
7.869601
9.295940
8.961558
9.160638
9.997487
10.278821
10.705590
10.963678
11.350513
10.589957
11.436939
11.393428
10.862947
10.368824
10.616779
9.130836
9.449720
9.078979
8.722544
8.388758
8.619428
8.137822
8.563995
8.653998
8.799434
8.444786
8.986592
9.204745
9.196997
8.849502
##ZVALUE=265
1.832843
1.788735
1.886487
1.842976
1.780987
1.972914
1.973510
2.034903
1.948476
1.948476
2.210736
2.191663
2.338886
2.756715
4.394650
18.602610
47.131777
121.379495
217.360854
420.164466
606.612563
791.938901
976.805687
1015.805006
940.696597
823.733807
612.025857
433.872938
248.968601
150.733590
94.990730
71.102977
81.703663
110.388994
129.455924
151.029825
154.623985
148.240924
130.818486
105.083585
82.266927
55.724978
37.897825
21.212697
12.448430
7.703900
6.755590
5.813837
6.275773
5.823970
5.954504
6.233454
6.443858
6.869435
6.664991
7.175803
6.925464
8.034706
7.568598
7.294416
7.648468
7.617474
7.796884
7.868409
7.725954
8.272529
8.422732
8.499622
9.243488
9.219646
9.019971
10.083914
9.980798
9.926558
10.281801
10.499954
9.860992
10.018945
10.036826
9.343624
8.774996
9.211898
8.916855
8.673668
8.761883
8.581877
8.235574
8.813739
8.699894
7.754564
8.078814
8.067489
8.040667
8.435845
8.893609
8.532405
##ZVALUE=270
1.645684
1.729727
1.881719
1.864433
1.830459
1.984835
1.874566
1.895428
1.969934
1.824498
2.055764
2.280474
2.088547
2.124906
2.523661
2.470613
3.201962
9.612441
26.147962
85.330009
172.797441
309.211016
557.363629
769.240856
999.682546
1015.936732
1015.936732
984.483957
778.102875
580.237508
401.008725
208.101869
120.038986
66.852570
62.567592
83.229542
105.870962
132.585764
146.949887
157.753825
149.842501
131.847858
110.386610
79.764724
57.905912
34.229755
23.336411
13.200641
9.919405
7.213950
6.314516
6.498694
6.288886
6.355643
6.988645
7.252693
7.761717
7.738471
8.228421
7.869601
7.635951
8.003712
8.264780
7.933974
8.116961
8.335710
8.663535
8.249879
8.728504
8.428693
8.741617
9.277463
9.504557
10.247827
10.075569
9.590983
9.864569
8.963943
9.226799
8.863807
8.522868
8.742809
7.944703
8.495450
7.940531
7.698536
7.723570
7.988811
7.867813
8.300543
7.639527
8.031726
7.926822
7.726550
7.744431
7.738471
##ZVALUE=275
1.484752
1.565814
1.651645
1.674891
1.373887
1.495481
1.663566
1.622438
1.591444
1.691580
1.858473
1.887679
1.990795
1.723766
1.925826
1.957417
2.009869
2.166629
2.292991
4.691482
16.414523
45.531988
134.242773
258.652568
495.821834
687.817931
922.971964
1015.794873
1015.794873
1015.794873
975.666642
728.201866
518.882871
277.897716
160.074830
72.408915
52.385926
59.636831
76.924562
107.438564
127.852559
144.872665
149.318576
147.686601
133.742690
104.775429
83.673000
55.874586
39.176941
22.576451
15.218854
9.119511
7.517934
6.702542
6.553531
6.965995
7.169843
7.530451
7.607937
7.860661
8.273721
8.073449
8.889437
8.287430
8.236766
8.800626
8.342862
8.466840
9.173751
9.127855
8.798838
8.976460
9.508729
9.491444
9.575486
9.290576
9.544492
9.077787
9.322762
8.611679
9.244680
8.302927
8.126497
7.811785
7.498860
7.845759
7.778406
7.516742
7.488728
7.228851
7.163882
6.752610
7.047653
6.999969
7.345676
7.330775
##ZVALUE=280
1.509786
1.452565
1.580715
1.490712
1.466870
1.457930
1.240969
1.427531
1.469851
1.569986
1.533628
1.610518
1.674891
1.873970
1.687407
1.954436
1.876950
2.032518
1.974702
2.340674
2.405643
2.909899
10.361671
34.125447
107.235909
199.827552
386.608839
578.300953
842.897892
1005.914807
1015.795469
1015.795469
1015.795469
832.822919
612.661839
349.981785
208.507776
92.963576
52.315593
42.684674
53.835511
80.474615
101.414919
129.487514
142.573714
148.949623
143.517852
128.449798
108.367801
79.411864
58.814883
37.017465
24.554729
14.456511
10.502934
8.172989
8.020997
7.941723
8.048415
8.561611
8.144975
8.747578
8.926988
9.069443
9.114742
9.110570
9.333491
9.184480
9.442568
9.238720
9.817481
9.721518
9.437799
9.411573
9.512901
9.693503
9.516478
8.616447
8.805990
8.556843
8.243918
7.909536
7.980466
7.681847
7.656813
7.498860
7.486939
7.296801
7.365942
6.841421
7.338524
7.017851
6.874800
6.825924
6.915927
6.935596
##ZVALUE=285
1.530647
1.274943
1.410842
1.255870
1.312494
1.352429
1.401901
1.424551
1.576543
1.549721
1.611710
1.611710
1.396537
1.797676
1.684427
1.565814
1.708865
1.872778
1.726747
2.055764
1.869798
2.147555
2.368689
2.720952
4.935861
21.111965
54.999590
148.299932
260.870457
486.662388
688.455701
961.733460
1015.805006
1015.805006
1015.805006
962.060690
757.046938
466.060638
293.765664
139.557719
71.779490
35.832524
35.575628
53.276420
72.390437
100.766420
119.346976
139.334798
145.894885
139.767528
129.188895
106.360912
86.617470
59.064627
42.138696
24.546981
16.943812
11.529922
9.328723
9.326935
9.154677
8.744597
9.103417
9.434819
9.378791
9.114742
9.591579
9.413958
9.134412
10.097623
10.043979
10.086894
10.162592
9.838939
9.840727
9.718537
9.207726
9.175539
8.414984
8.336902
8.186698
7.757545
7.120967
7.742643
7.337928
7.588863
7.453561
6.856918
6.993413
6.517768
6.660819
6.603599
6.492734
6.559491
6.688833
6.793737
##ZVALUE=290
1.211762
1.341701
1.221895
1.305938
1.331568
1.343489
1.216531
1.336932
1.358986
1.585484
1.534820
1.535416
1.412630
1.508594
1.369715
1.342893
1.523495
1.606941
1.691580
1.585484
1.680851
1.710653
1.952648
1.961589
2.313852
2.226830
3.057718
8.087754
35.145879
81.048608
199.701786
351.963639
552.007556
856.737494
1015.805602
1015.805602
1015.805602
1015.805602
882.701874
600.790977
398.930907
200.706720
101.877451
39.883852
26.837587
33.773780
47.818422
70.983768
92.834830
120.209455
133.288503
142.552853
140.053630
125.574470
107.217431
81.185699
61.050653
38.987994
27.977824
18.600821
14.130473
10.564923
9.922981
9.605885
9.853840
9.834766
9.902716
9.955764
10.096431
9.598732
9.820461
10.286570
10.408759
9.926558
9.807944
9.529591
9.094477
9.041429
8.888841
8.697510
8.209944
8.122921
7.744431
7.353425
7.660985
7.040501
7.234812
7.190704
6.992817
6.758571
6.832480
6.560683
6.700754
6.372929
6.475449
6.580949
##ZVALUE=295
1.252890
1.014471
1.339912
1.108646
1.269579
1.217723
1.171827
1.204610
1.259446
1.153946
1.320839
1.426935
1.378655
1.319647
1.449585
1.250505
1.497865
1.459718
1.516938
1.638532
1.744628
1.607537
1.915693
1.768470
1.896620
2.116561
1.870990
2.121925
2.381802
3.771782
11.335611
49.470663
113.514662
275.334716
455.257893
750.429630
962.724686
1015.805006
1015.805006
1015.805006
999.434590
727.626681
508.802533
270.285010
145.667791
53.933859
27.911663
22.167563
29.128790
46.637654
65.003633
90.139508
109.578967
129.808784
136.798620
133.071542
122.835636
101.249814
82.924962
57.831407
43.692589
27.282834
19.539595
13.785958
11.873841
10.298491
10.405779
10.257959
9.535551
10.077953
10.336637
10.087490
9.924769
9.488463
9.862781
9.181499
8.980632
8.930564
8.761883
8.643866
8.547902
8.061528
7.682443
7.559657
7.445812
6.957650
7.336736
7.065535
6.445646
6.747842
6.543994
6.637573
6.327629
6.726980
6.348491
6.069541
##ZVALUE=300
1.150966
1.153946
1.004934
1.077652
1.152754
1.128912
1.236796
1.238585
1.105666
1.341701
1.184940
1.263618
1.103878
1.257658
1.201630
1.429915
1.198649
1.253486
1.403689
1.402497
1.456738
1.410842
1.433492
1.674891
1.599789
1.715422
1.732707
1.918674
2.061725
2.263784
2.305508
2.485514
8.079410
26.034713
90.538859
178.710818
378.234982
589.945912
885.890722
1015.805602
1015.805602
1015.805602
1015.805602
912.687778
614.149570
402.840972
199.364424
107.063651
39.550662
20.736456
19.724965
26.941895
44.276714
60.166717
84.297657
103.621483
124.492645
129.488707
129.655600
121.954679
100.970864
83.310604
60.265660
44.484735
28.571486
20.712614
14.172792
12.003779
10.212660
9.919405
9.744763
9.741783
9.106994
9.910464
9.414554
9.072423
9.148717
8.603930
8.456707
8.332729
7.791519
7.558465
7.663965
7.310510
7.244945
7.224679
7.249713
7.078648
6.748438
6.698966
6.501675
6.247759
6.217957
6.288886
6.379485
6.151795
##ZVALUE=305
1.170635
1.033545
1.159906
0.922680
0.975728
1.131892
1.289845
1.235604
1.211762
1.222491
1.051426
1.273751
1.189709
1.150966
1.284480
1.145601
1.106858
1.279712
1.446605
1.233816
1.471639
1.402497
1.272559
1.337528
1.526475
1.454949
1.579523
1.618862
1.755953
1.891851
1.956820
2.205968
2.306700
2.431870
3.833771
18.304586
49.738884
145.450830
266.356468
504.181981
721.262693
996.042490
1015.803814
1015.803814
1015.803814
952.838659
748.513937
473.866463
293.490887
133.980513
65.840483
25.048852
15.860796
19.367933
26.654601
42.431951
58.327913
82.613826
100.353956
118.051767
124.381781
124.961734
114.617944
95.486641
79.417825
56.040883
42.162538
27.764440
19.381642
13.062954
10.867715
9.997487
9.146929
9.037852
8.858442
8.363724
8.617640
8.270741
7.797480
7.840991
7.600784
7.596612
6.974936
7.270575
6.902814
6.943941
6.740689
6.606579
6.746650
6.511807
6.355643
6.133914
5.866885
6.076694
6.047487
5.909801
##ZVALUE=310
1.028776
0.873804
1.135468
0.886917
0.959635
0.940561
0.887513
1.085997
1.016855
1.139641
0.958443
1.169443
1.181960
1.091957
1.247525
1.192689
1.158714
1.160502
1.170635
1.186728
1.209974
1.460910
1.207590
1.332760
1.361966
1.337528
1.510978
1.510978
1.418591
1.556873
1.673698
1.771450
1.731515
1.897812
2.279878
2.182722
2.554655
7.886887
25.578737
86.999536
175.013542
371.717811
580.140948
883.299708
1015.785933
1015.785933
1015.785933
1015.785933
917.216539
625.674725
416.853428
207.156539
112.093687
40.389895
18.614531
13.772845
16.524792
24.962425
35.762787
54.097772
70.532560
92.640519
105.613470
115.150809
116.357803
107.773542
94.613433
75.586438
59.044957
38.220882
28.121471
18.442869
13.769865
9.993911
9.015799
8.156896
7.682443
7.641912
7.066727
6.924868
6.808639
6.940961
6.746650
6.740689
6.819963
6.562471
6.530881
6.431937
6.482601
6.311536
5.802512
6.131530
5.756617
5.888939
5.839467
5.894899
##ZVALUE=315
0.949502
1.177788
0.964999
1.085997
1.092553
0.982881
0.972748
1.074672
1.063943
1.199841
0.970960
1.037717
1.079440
1.109838
1.064539
1.050830
1.118779
1.041889
1.210570
1.091957
1.120567
1.222491
1.143813
1.380444
1.284480
1.323819
1.264811
1.358986
1.458526
1.625419
1.550913
1.474619
1.622438
1.643896
1.751781
1.837611
1.961589
2.239943
2.273917
4.062653
13.464689
56.307912
123.664737
283.949971
475.546718
788.945556
994.507670
1015.805006
1015.805006
1015.805006
1013.289690
745.459795
525.744557
278.621912
150.617957
57.021976
25.070906
12.529492
12.529492
16.417503
22.002459
34.331679
46.892762
67.303777
83.864927
100.292563
108.683705
109.572411
103.001595
87.028742
71.934462
53.412914
39.883852
24.448633
16.981959
11.286736
8.877516
7.438660
6.708503
6.772876
6.550550
6.275773
5.997419
6.505847
6.417632
6.127954
5.926490
6.295443
6.090999
5.863905
5.739927
5.908608
5.625486
5.642772
5.784631
5.459785
##ZVALUE=320
1.090765
1.165867
0.932813
0.878572
1.073480
0.891685
1.050830
1.109838
1.075864
1.042485
0.968575
1.043677
1.217723
1.018643
1.033545
1.081824
1.085997
1.168847
1.173615
1.160502
1.217723
1.251698
1.180768
1.097918
1.219511
1.129508
1.054406
1.248717
1.343489
1.224875
1.330972
1.411438
1.580715
1.309514
1.574755
1.658797
1.598597
1.715422
1.935959
2.050996
2.231598
2.590418
6.186962
31.165481
79.166889
209.277868
356.486440
612.570643
839.121938
1015.805006
1015.805006
1015.805006
1015.805006
874.089003
640.368462
353.678465
204.484463
86.448789
39.348602
14.493465
10.420680
11.243820
13.248920
19.559860
28.107762
44.080615
58.506727
77.243447
90.756416
101.072788
102.523565
95.262527
85.491538
66.594481
51.608682
34.414530
24.040937
15.381575
10.806918
7.942915
6.699562
6.093979
6.147623
6.042719
6.134510
5.864501
5.968809
5.773902
5.750656
5.514622
5.412698
5.802512
5.559921
5.600452
5.724430
5.724430
##ZVALUE=325
0.962615
0.959635
0.917912
0.947714
1.047850
0.858903
1.023412
1.015663
1.023412
0.953674
0.935793
0.984669
1.211762
1.092553
0.960827
0.928640
1.139641
0.952482
1.084805
1.184940
1.036525
0.993609
1.088977
1.129508
1.073480
1.299977
1.179576
1.267791
1.238585
1.258850
1.318455
1.421571
1.258850
1.362562
1.470447
1.494884
1.535416
1.523495
1.432896
1.672506
1.634955
1.832843
1.867414
2.312660
3.817677
20.558834
54.108500
144.582987
265.576839
507.908463
721.827745
992.362499
1015.805006
1015.805006
1015.805006
944.198966
726.319551
445.454717
265.095830
114.532709
54.574609
18.576980
10.055900
8.553863
9.081960
11.949539
17.406940
27.911663
39.590001
57.636499
71.663857
86.152554
93.991756
95.419884
90.512633
75.301528
62.000751
45.262575
33.156872
20.468831
14.471412
9.355545
7.680655
6.140471
5.795956
5.735755
5.575418
5.519986
5.556941
5.375743
5.348921
5.478859
5.541444
5.154610
5.227923
5.301833
##ZVALUE=330
0.854731
0.936985
0.889897
1.050830
0.829697
0.922680
0.935793
0.953674
0.872612
0.987649
0.957847
0.901818
1.164675
0.942945
0.926852
1.014471
0.945926
0.940561
1.211762
1.025796
1.030564
1.103878
0.947714
1.115799
1.147985
1.037717
1.006722
1.099706
1.171827
1.237988
1.328588
1.182556
1.190901
1.262426
1.430511
1.495481
1.309514
1.200438
1.335740
1.284480
1.502633
1.582503
1.674891
1.892447
2.003908
2.306700
2.619624
9.095669
28.319955
93.732476
183.247924
379.018784
574.001670
865.420699
1015.805006
1015.805006
1015.805006
1013.413668
847.390890
552.764535
356.752872
164.853930
83.478689
30.017495
12.830496
7.913709
7.587671
8.390546
10.656714
16.911626
23.891926
37.346482
50.465465
68.917871
80.284476
88.630915
89.341998
82.044601
73.907971
56.058764
43.550730
29.043555
21.253824
14.213920
10.236502
7.513762
6.307960
5.685687
5.758405
5.592704
5.271435
5.296469
5.231500
5.344748
5.171895
5.219579
##ZVALUE=335
0.944734
0.899434
0.924468
0.962615
0.782609
1.047850
1.008511
0.826716
0.879765
0.801682
0.908971
0.835657
0.894666
0.784993
0.922680
1.000762
0.936985
1.084805
1.090765
0.876784
1.063943
1.119971
1.098514
1.056790
1.277924
1.095533
1.141429
1.128912
1.146793
1.120567
1.039505
1.028776
0.969768
1.135468
1.147985
1.315475
1.142621
1.191497
1.318455
1.326799
1.308918
1.473427
1.525879
1.502633
1.686811
1.767874
1.781583
2.054572
2.049804
4.519820
14.547706
57.832003
123.023987
283.266902
465.491414
767.178535
980.837941
1015.807986
1015.807986
1015.807986
954.898596
657.344460
447.479486
233.111978
120.779872
41.773915
16.948581
8.166432
7.439852
7.114410
7.832646
10.581613
14.716983
24.365783
34.492612
50.940514
62.502623
75.749755
82.444549
82.570910
78.364611
65.666437
55.663586
41.964650
31.908751
20.984411
14.631748
9.580851
7.552505
6.113648
5.791783
5.382895
5.109906
5.133748
5.114675
5.128980
##ZVALUE=340
0.718832
0.816584
0.839829
0.785589
0.797510
0.955462
1.046658
0.805855
0.818968
0.823736
0.902414
0.794530
0.947714
0.921488
0.887513
0.881553
0.894666
0.871420
0.914931
0.882745
0.769496
0.815988
0.826716
1.007915
0.941753
1.111627
0.925660
1.033545
1.137853
0.908971
1.000762
1.077652
1.025796
0.972748
1.089573
1.191497
1.265407
1.092553
1.277924
1.194477
1.425743
1.374483
1.182556
1.332760
1.529455
1.510978
1.582503
1.779795
1.758933
1.849532
2.053976
2.710819
7.310510
36.177635
89.620948
223.713517
381.695032
647.774935
856.225491
1015.805006
1015.805006
1015.805006
1009.464860
764.367580
543.602705
289.022923
155.963898
57.346821
23.577809
9.211898
7.177591
6.774664
7.037520
7.787943
9.775758
15.463829
22.228956
33.766627
45.644641
60.987473
70.741773
77.459812
78.568459
72.013736
65.347552
51.760674
41.745901
29.472709
21.997690
13.996959
10.102987
7.103682
5.976558
5.539656
5.271435
5.091429
##ZVALUE=345
0.722408
0.757575
0.699759
0.601411
0.689626
0.709891
0.720620
0.834465
0.741482
0.662804
0.819564
0.771880
0.684857
0.702739
0.792742
0.678897
0.718832
0.749826
0.524521
0.809431
0.705719
0.675917
0.801682
0.793934
0.834465
0.780821
0.881553
0.759959
0.832677
0.866652
0.886917
0.904799
0.709891
0.931621
0.855923
0.774860
0.830889
1.045465
0.816584
0.943542
0.970960
0.914931
0.948906
1.152754
1.073480
1.151562
1.171827
1.305938
1.399517
1.372695
1.508594
1.346469
1.492500
1.920462
3.540516
19.321442
53.840876
145.996809
269.304514
506.871939
714.194775
980.495811
1015.650034
1015.650034
1015.650034
848.705769
634.961724
374.839902
210.146904
83.170533
37.441850
12.500882
7.479787
6.875992
6.617904
6.477833
6.902814
9.086728
12.815595
21.092892
29.941797
43.555498
53.104758
63.945651
70.156455
72.764754
69.215894
60.543418
52.320957
39.598942
30.211806
19.997954
14.580488
10.031462
7.176995
6.094575
##ZVALUE=350
0.817776
0.714660
0.876784
0.793934
0.921488
0.754595
0.718832
0.880957
0.770688
1.007915
0.942945
0.887513
0.970960
0.906587
0.872612
0.902414
0.730753
0.702739
0.893474
0.731945
0.772476
1.015663
0.969768
0.949502
0.893474
1.021624
0.916719
0.844598
1.010895
0.996590
0.922680
0.900626
0.977516
1.023412
1.013875
1.106858
1.130700
1.054406
1.011491
1.172423
1.073480
1.085997
1.152754
1.172423
1.275539
1.114607
1.156926
1.189709
1.257658
1.278520
1.384616
1.332760
1.315475
1.616478
1.767874
2.044439
2.543926
9.808540
30.770898
99.080801
193.584561
395.744443
587.660670
848.430991
1005.617976
1015.805006
1015.805006
914.909840
709.945560
437.822938
262.160897
117.068887
54.351687
16.083717
8.526444
6.379485
6.231666
5.767941
5.821586
6.806850
8.447766
12.642741
18.015504
27.580857
35.915971
48.066974
56.741834
64.250827
66.111684
63.758492
58.112741
47.396421
38.660765
28.726459
21.001697
14.295578
##ZVALUE=355
0.772476
0.833869
0.669956
0.833869
0.793934
0.721812
0.736713
0.844598
0.785589
0.816584
0.774860
0.762939
0.934601
0.837445
0.956655
0.732541
0.842810
0.866652
0.986457
0.966787
0.944734
0.891685
1.030564
0.974536
0.948906
0.989437
0.948906
0.837445
0.769496
0.871420
0.916719
1.009703
1.082420
0.924468
0.990629
0.999570
0.957847
1.047850
1.007915
0.895858
0.988841
1.065731
0.987649
1.038909
1.244545
1.227856
1.094937
1.208782
1.254678
1.292825
1.308918
1.405478
1.381636
1.512766
1.620650
1.581907
1.782775
1.818538
1.948476
15.582442
20.923615
53.598881
260.036588
276.081562
632.704496
723.309517
960.576534
1015.805602
1015.805602
989.305973
801.990032
522.550941
326.175690
143.956542
70.866942
23.811460
10.263920
6.239414
6.148815
5.932450
5.581975
5.634427
6.253719
7.865429
10.047555
16.346574
22.593737
32.831430
41.057467
50.404668
56.563616
60.306787
58.830976
52.899718
46.229959
36.373734
##ZVALUE=360
0.780821
0.751615
0.818968
0.991821
0.816584
0.862479
0.723600
0.898838
0.692606
0.795722
0.870824
0.724792
0.703931
0.894666
1.037717
0.740886
0.783801
0.787973
0.902414
0.829697
0.851750
0.833869
0.956655
0.843406
0.888705
0.836849
1.075864
1.080632
0.801682
0.839829
1.000762
0.966787
0.993609
1.109838
1.011491
0.993609
0.875592
0.917912
1.028776
1.115799
1.028776
0.908971
1.017451
1.224875
0.983477
0.997782
1.089573
1.266599
1.244545
1.341701
1.322627
1.436472
1.370907
1.271963
1.461506
1.318455
1.438856
1.650453
1.641512
1.829863
1.939535
2.845526
7.745624
33.405423
82.985759
210.704803
357.621908
608.834624
829.504728
1015.803814
1015.803814
1015.803814
958.611965
664.591789
445.532799
215.022564
110.116601
39.830804
15.610456
6.875992
6.216764
5.590916
5.553961
5.289912
5.060434
5.573630
6.502867
8.904934
12.542605
18.739700
25.819540
36.400557
43.315887
50.975680
53.789616
54.751635
##ZVALUE=365
0.743866
0.781417
0.815988
0.744462
0.903606
0.890493
0.787973
0.780821
0.787973
0.810623
0.872612
0.929832
0.795722
0.891685
0.795722
0.943542
0.796914
0.832677
0.725985
0.724792
0.797510
0.844598
0.853539
0.940561
0.874996
0.989437
0.823736
0.928640
1.013875
0.871420
0.992417
1.117587
0.895858
1.020432
1.055598
1.075864
1.110435
0.988841
0.935793
1.087785
1.017451
1.075864
0.927448
0.978708
1.029968
1.129508
1.036525
1.104474
1.172423
1.236796
1.113415
1.166463
1.299977
1.303554
1.293421
1.352429
1.405478
1.588464
1.604557
1.541972
1.821518
1.743436
1.933575
2.224445
3.640652
18.031001
49.390793
133.851767
252.139568
490.787625
690.135956
943.292975
1015.805006
1015.805006
985.457897
739.414692
530.035496
289.201736
154.698491
55.083632
21.903515
7.739663
5.981922
5.495548
5.270839
5.114675
5.126595
4.962683
4.889965
5.805492
7.426739
11.116862
15.411973
23.387671
29.860735
38.621426
##ZVALUE=370
0.863671
0.886917
0.852942
0.712872
0.953674
0.796914
0.999570
0.785589
0.910759
0.763535
0.990629
0.866652
0.774860
0.915527
0.864863
0.908971
0.948906
0.880957
0.960827
0.985861
0.896454
0.971556
0.867844
0.922680
0.892878
0.890493
0.799894
0.816584
0.902414
0.989437
1.041889
1.036525
1.008511
1.076460
1.031756
0.949502
1.035929
0.874996
1.147985
0.960827
1.232624
0.981688
1.096725
1.111627
1.277924
1.145601
1.193881
1.120567
1.229644
1.267791
1.260638
1.191497
1.233816
1.320839
1.374483
1.396537
1.364946
1.423955
1.489520
1.476407
1.402497
1.591444
1.726747
1.734495
1.970530
2.083778
2.749562
7.739663
37.684441
92.505813
225.899816
371.546745
617.290735
827.142000
1015.881896
1015.881896
1015.881896
870.946646
590.620637
385.420918
177.456737
88.678002
32.255650
13.489723
6.317496
5.432963
5.072951
4.889965
4.647970
4.604459
4.413724
4.533529
5.222559
6.751418
9.661913
13.760924
##ZVALUE=375
0.796914
0.808835
0.757575
0.756979
0.720620
0.796914
0.771880
0.796914
0.917912
0.733733
0.787973
0.862479
0.695586
0.709891
0.785589
0.861883
0.903606
0.763535
0.762939
0.819564
0.878572
0.816584
0.755787
0.871420
0.735521
0.909567
0.797510
0.807643
0.791550
0.899434
0.915527
0.796914
0.810623
0.926852
0.978708
1.007915
1.050830
0.909567
0.939965
0.993609
0.908971
0.929832
0.999570
0.883937
0.856519
1.062751
0.911951
1.024604
1.034737
1.015663
0.976920
1.042485
0.964999
1.111627
1.191497
1.180768
1.157522
1.233816
1.289845
1.231432
1.376867
1.392961
1.235604
1.381636
1.398921
1.433492
1.644492
1.984835
2.216697
5.000830
16.847849
60.307980
131.904483
304.646492
485.794544
759.540796
943.827629
1015.805006
1015.805006
936.836004
742.417574
457.838774
285.803676
130.504966
63.503981
19.909739
8.314848
5.087852
4.814863
4.570484
4.224777
4.239678
3.910661
3.998876
4.010797
4.711747
##ZVALUE=380
0.602603
0.664592
0.742674
0.777841
0.827909
0.655651
0.818968
0.808835
0.704527
0.798702
0.946522
0.830889
0.726581
0.781417
0.659823
0.777841
0.589490
0.661612
0.638962
0.830889
0.809431
0.962615
0.779629
0.841618
0.755787
0.708699
0.808835
0.793934
0.774860
0.749826
0.763535
0.923872
0.889897
0.878572
0.857711
0.786781
0.728965
0.807643
0.760555
0.842810
0.773668
0.891685
1.009703
0.821948
1.074672
0.935793
0.935793
0.638962
1.023412
0.950694
0.811815
0.891685
0.967979
0.969768
1.010895
1.067519
1.048446
1.066923
1.184940
1.005530
1.034737
1.238585
1.216531
1.114607
1.453757
1.492500
1.382828
1.448989
1.621842
1.832843
2.072453
2.847910
8.996725
43.268800
100.402832
241.380930
400.454998
651.482940
851.462483
1015.795469
1015.795469
1001.113653
845.305920
592.100620
396.715999
191.159844
96.550584
32.782555
13.513565
5.595684
4.640818
4.344583
4.325509
4.028678
3.961921
3.751516
##ZVALUE=385
0.748634
0.729561
0.718832
0.686646
0.642538
0.718832
0.698566
0.886917
0.721812
0.813603
0.773668
0.748634
0.751615
0.763535
0.741482
0.779629
0.688434
0.732541
0.772476
0.771880
0.791550
0.521541
0.768900
0.806451
0.843406
0.803471
0.705719
0.790954
0.760555
0.756979
0.939965
0.656843
0.778437
0.801682
0.870824
0.743866
0.928640
0.852942
0.696778
0.789762
0.934601
0.872612
0.997782
0.900626
0.921488
0.702739
0.913739
0.902414
0.910759
0.920892
0.834465
0.895858
0.953674
1.051426
0.927448
0.885725
1.038909
1.011491
0.953674
1.080632
1.079440
1.014471
1.184940
1.228452
1.293421
1.203418
1.255870
1.170635
1.371503
1.629591
1.681447
1.785755
1.877546
2.046824
5.441904
18.361807
69.709420
150.921941
330.875516
523.681641
803.622007
968.650579
1015.805602
1015.805602
927.137733
742.193460
463.951826
291.929841
129.009485
61.925650
19.926429
7.689595
4.426837
4.242659
3.842711
3.900528
##ZVALUE=390
0.667572
0.685453
0.577569
0.644922
0.639558
0.754595
0.766516
0.705719
0.678897
0.720620
0.683665
0.701547
0.711679
0.752807
0.681877
0.797510
0.839829
0.692606
0.672936
0.698566
0.713468
0.812411
0.782609
0.834465
0.808835
0.872612
0.710487
0.669956
0.744462
0.791550
0.878572
0.719428
0.838637
0.766516
0.712872
0.850558
0.695586
0.613928
0.637770
0.871420
0.687838
0.842810
0.771880
0.836849
0.830889
0.873804
0.842810
0.746846
0.865459
0.928640
0.952482
0.794530
0.886917
0.901818
0.845790
1.035929
0.965595
0.925660
0.949502
0.897646
0.999570
1.015663
1.011491
1.007915
1.156926
0.999570
1.011491
1.343489
1.424551
1.309514
1.472831
1.461506
1.636744
1.733899
1.716614
1.796484
2.535582
12.493730
41.035414
129.789710
248.053670
475.431681
658.904910
874.980688
1000.435948
1015.805006
994.358659
794.016719
608.454943
371.137857
215.255618
86.508989
38.078427
10.383725
5.064607
4.060864
##ZVALUE=395
0.483990
0.729561
0.549555
0.585914
0.704527
0.509620
0.588894
0.498891
0.497699
0.519753
0.422597
0.629425
0.379682
0.515580
0.409484
0.588894
0.543594
0.646710
0.522733
0.421405
0.621676
0.606775
0.476837
0.615716
0.473857
0.569820
0.651479
0.501871
0.572801
0.617504
0.748634
0.729561
0.551939
0.577569
0.653863
0.528693
0.597835
0.628829
0.633597
0.693798
0.660419
0.735521
0.705719
0.691414
0.765920
0.703931
0.732541
0.761747
0.616908
0.558496
0.753999
0.707507
0.765920
0.770688
0.783801
0.913739
0.792742
0.664592
0.688434
0.710487
0.737906
0.798702
0.843406
0.865459
0.834465
1.005530
1.007915
1.200438
1.180768
1.141429
1.256466
1.279712
1.143813
1.322627
1.333952
1.386404
1.390576
1.586676
1.801848
6.844401
26.010871
92.099905
181.179643
363.714695
541.672707
802.140832
980.967879
1015.642881
1015.642881
961.251855
762.299895
472.159982
296.397805
136.809945
63.531995
19.521713
##ZVALUE=400
0.709891
0.687838
0.717640
0.738502
0.672936
0.669956
0.753999
0.741482
0.871420
0.631809
0.770688
0.697970
0.830889
0.679493
0.600815
0.848770
0.586510
0.714660
0.753999
0.675917
0.708699
0.573993
0.786781
0.658631
0.745654
0.844598
0.707507
0.688434
0.873804
0.826716
0.722408
0.668764
0.693798
0.684857
0.752807
0.628829
0.698566
0.873804
0.821948
0.738502
0.791550
0.896454
0.912547
0.862479
0.802875
0.791550
0.919700
0.928640
0.939965
0.777841
0.925660
0.925660
0.816584
0.860691
0.883937
0.878572
0.847578
0.907779
0.929832
1.026988
0.960827
0.870824
0.947714
1.071692
0.919700
0.951886
1.034737
1.073480
1.272559
1.237988
1.295805
1.287460
1.545548
1.374483
1.435876
1.405478
1.345873
1.326799
1.627803
1.868606
1.917481
4.131794
14.003515
55.021644
121.321678
277.144909
451.335907
718.562603
896.704793
1015.805006
1015.805006
997.028947
825.002789
545.266867
356.917977
179.708004
##END
