##TITLE=
##FORMAT=SPECTACLE-ASCII V-1.2
##DATA TYPE=ULTRAVIOLET SPECTRUM
##SECOND TYPE=ULTRAVIOLET SPECTRUM
##DATE=09/27/17
##TIME=10:41:54
##SPECTROMETER/DATA SYSTEM=SPECTACLE
##XUNITS=NM EM
##YUNITS=ENERGY
##YFACTOR=1
##FIRSTX=220
##LASTX=410
##NPOINTS=96
##3DDATA=Equidistant
##ZUNITS=NM EX
##FIRSTZ=210
##LASTZ=400
##ZPOINTS=39
##XYDATA=(Y..Y)
##ZVALUE=210
3.888607
3.885627
3.629923
3.434420
3.678799
3.614426
4.156828
4.031658
3.823638
3.923774
4.070997
3.882647
4.063845
3.793836
4.137754
4.567504
4.818439
4.674792
4.383922
4.043579
5.163550
4.774928
4.955530
5.932450
5.976558
5.371571
5.353689
6.074905
6.661415
4.885793
5.727410
6.501675
6.038547
6.350875
6.033778
6.499887
6.501675
6.624460
7.034540
7.008910
7.591844
7.662773
8.070469
8.215904
7.602572
7.479787
6.966591
8.120537
7.826686
7.465482
7.108450
8.058548
8.694530
7.401705
8.795857
7.980466
8.608699
8.805990
8.452535
9.061694
8.494854
8.176565
8.750558
8.789897
8.867979
9.444952
9.428859
9.943843
11.751652
13.491511
14.198422
15.425682
19.065738
22.106767
22.460818
23.189783
21.735430
23.798943
21.364689
22.012591
18.853545
19.440651
16.738772
14.015436
13.322830
10.681748
10.916591
9.404421
8.771420
8.876920
9.608865
8.309484
9.338856
9.280443
8.293986
8.785725
##ZVALUE=215
6.494522
6.288886
6.036758
5.850792
5.302429
4.927516
4.964471
5.904436
6.002784
6.290674
5.974770
6.387830
5.384684
4.714727
4.505515
4.223585
4.331470
4.198551
5.254745
5.026460
5.537868
5.620718
5.754828
5.704761
5.424619
6.194711
5.725622
6.171465
6.004572
5.882978
6.570816
6.752610
6.573796
6.781816
7.558465
6.990433
6.846786
7.627606
7.521510
6.471872
7.167459
6.773472
7.712841
8.564591
9.045601
8.079410
8.349419
8.140802
8.432865
8.397698
8.397698
8.708835
9.022951
8.820891
8.840561
8.962750
9.090900
8.784533
9.193420
8.961558
9.348989
10.066628
9.352565
8.977652
10.171533
9.377599
10.378957
10.757446
11.465549
12.733936
16.408563
16.290545
18.040538
21.123886
21.695495
23.015738
21.528602
22.419691
21.457672
19.999743
18.221736
15.857816
16.656518
14.773607
13.886690
11.309981
9.912848
10.477901
10.530949
8.685589
9.532571
8.329749
8.558631
8.652806
8.411407
8.864999
##ZVALUE=220
18.084645
16.606450
21.792650
20.140409
20.051599
17.640591
15.482903
12.949705
10.798573
11.033416
11.612773
11.978745
11.483431
11.132956
9.602904
8.009672
6.989837
6.412864
5.318522
5.311966
5.571842
5.203485
5.680919
5.852580
6.389618
6.657839
5.935431
6.731749
7.270575
6.784797
7.353425
7.090569
7.693768
6.928444
6.727576
6.527901
8.314848
8.929968
8.203983
7.849932
6.982684
7.933974
8.835793
8.320808
8.456707
8.673668
9.424686
9.005666
8.633733
8.713603
8.974671
9.036660
8.950830
9.676814
9.955764
10.081530
10.988712
10.522604
10.484457
10.380745
10.135770
10.007620
11.195540
10.924935
10.631680
11.589527
11.848807
11.770725
13.142824
14.729500
17.298460
18.103719
20.428896
21.605492
21.663904
23.531914
21.926761
21.528602
22.476912
20.169616
20.148754
18.966794
16.613603
15.838742
14.701486
13.055801
12.891889
11.263490
10.688901
11.294484
11.156797
10.511875
11.597872
11.529922
9.711981
9.636879
##ZVALUE=225
29.946566
33.063889
45.509934
59.085488
67.407489
67.775846
67.889690
52.531958
43.446422
32.620430
25.580525
22.416711
25.834441
25.965571
24.825931
24.819970
21.016598
17.264485
13.567805
10.761619
9.063482
6.312728
6.458759
6.254911
6.015897
5.959868
6.938577
6.700754
6.913543
7.321835
6.977916
7.124543
8.246899
8.393526
7.815957
8.316636
8.794665
8.277893
8.099675
9.115934
8.961558
9.135604
8.780956
8.494854
8.485913
9.837747
9.267926
9.717941
9.802580
9.339452
10.293722
10.066628
11.081696
10.444522
10.238886
10.644794
10.983944
11.448860
12.440681
11.718869
13.365746
12.568831
12.427568
13.302565
13.304949
14.116764
15.430450
14.334917
17.039776
16.632676
19.104481
19.417405
22.415519
23.678541
24.038553
24.469495
25.362968
25.515556
25.116801
21.535754
21.755695
19.904971
17.453432
18.544793
17.294884
17.416477
14.409423
15.294552
13.915896
14.217496
13.524890
13.483763
14.016628
14.165640
14.269948
14.257431
##ZVALUE=230
28.516650
30.201674
58.131814
83.344579
125.511885
147.112608
175.881982
180.121660
163.339972
138.379931
96.690655
70.470572
57.658553
44.778585
42.647719
47.094822
49.218535
48.512816
44.819713
33.168793
27.833581
20.626783
13.806820
10.882616
8.392930
7.922649
7.345676
7.720590
7.598996
7.705688
8.196831
8.412600
8.601546
8.002520
8.410811
9.399652
9.519458
8.948445
9.003878
9.239912
9.747744
8.869767
9.157658
9.045601
9.099841
10.518432
10.075569
9.672642
10.856986
10.650754
11.250973
12.028813
11.763573
12.214780
12.377501
15.071630
15.201569
16.054511
15.642643
15.047789
15.536547
17.824769
16.841888
17.037988
17.330647
19.137859
19.188523
20.563602
22.159815
21.354556
23.943782
25.336742
26.945472
30.555725
30.972958
30.804873
31.250715
31.910539
30.930638
29.796958
26.975870
26.870966
25.372505
24.658442
24.881959
22.877455
22.151470
22.615790
22.693872
21.852851
20.584464
20.934939
21.517873
21.088719
21.931529
20.211935
##ZVALUE=235
11.441708
14.542937
27.568936
67.970753
108.436942
179.122686
247.198939
315.821767
362.488627
368.267894
349.356532
267.851949
209.710598
137.027502
100.924969
80.920458
71.051717
77.753663
83.538890
83.189607
77.373981
68.844557
46.845675
36.603808
26.245713
18.373728
13.158917
10.180473
8.517504
8.577704
9.528995
9.506941
8.516908
10.336637
9.100437
10.271668
9.416938
9.494424
9.342432
10.019541
9.678602
10.145903
10.504723
11.095405
10.280609
10.669827
10.971427
10.212660
10.653734
12.311935
12.476444
12.097955
13.577938
14.206767
15.298724
17.055869
17.130971
18.171668
18.546581
20.026565
21.080971
21.570921
21.365881
24.333596
23.923516
24.670959
24.479628
25.860667
26.443601
29.659867
30.831695
32.714605
35.618544
38.626790
36.623478
40.700436
39.576888
36.373734
38.050413
37.195683
35.577416
34.269691
33.523440
34.536719
33.085942
33.831596
31.829476
31.591654
31.905770
31.384826
30.836463
29.770732
28.686523
29.013753
30.005574
29.793978
##ZVALUE=240
3.595948
3.762841
6.183982
20.296574
40.746927
92.960000
156.736970
277.040601
386.983752
511.289835
578.340888
593.837500
548.204780
470.171571
349.977016
254.661441
153.352618
112.762451
92.764497
95.915794
110.648870
114.482641
106.800795
103.981495
85.533857
63.207746
46.996474
29.785633
21.839738
14.495850
10.999441
9.407997
9.797812
9.810925
9.229779
9.831786
9.214878
9.902716
10.692477
10.195971
10.588765
10.158420
9.850860
11.111498
10.252595
9.984970
10.761619
10.826588
10.829568
12.944937
13.061762
13.932586
13.495684
16.317964
16.182661
16.779900
18.901825
19.277930
19.097924
21.259785
21.752715
23.215413
24.567842
23.711920
25.327802
26.148558
26.091933
30.488968
31.217933
32.149553
34.321547
37.353635
39.033890
40.840507
40.920973
41.945577
41.990876
45.577884
42.532682
42.452812
42.752624
40.182471
40.632486
38.357973
39.171576
38.502812
35.139918
37.048459
36.912560
36.316514
35.994649
35.851598
36.745667
35.663843
36.177635
35.368800
##ZVALUE=245
3.245473
3.034472
3.239512
3.196597
5.023479
15.695691
36.449432
92.323422
170.465708
311.065912
446.712971
610.723495
697.023869
757.961869
717.315674
639.339685
494.135618
367.673635
224.067569
157.254934
111.629963
99.858642
112.506747
123.564601
125.794411
120.348930
109.474659
87.965727
72.276592
49.179792
37.392974
23.797750
16.133785
12.343526
10.120869
9.927750
9.519458
9.750724
8.203983
8.973479
9.959936
9.169579
8.970499
10.307431
9.746552
9.576678
9.459853
10.270476
10.455847
11.118650
12.227893
12.854934
13.303757
14.373660
14.233589
15.035868
15.979409
16.389489
17.440915
18.525720
19.060969
19.844770
20.867586
21.676421
23.310781
23.147464
25.587678
26.200414
26.588440
30.553937
31.490922
32.165647
35.135746
36.894679
37.500858
39.130449
37.906766
38.718581
40.536523
38.231611
39.196610
36.431551
36.936998
37.927628
35.451651
38.265586
36.782622
35.653710
35.516620
36.134720
35.606623
35.896897
35.702586
36.281943
35.795569
36.155581
##ZVALUE=250
3.290772
3.070831
2.789497
2.942681
3.209710
3.100634
3.909469
10.608435
28.670430
62.705874
158.432722
283.375978
472.936630
619.640946
786.174536
878.687501
877.537727
820.950866
708.574653
507.534742
348.056555
196.704865
134.189725
99.115968
103.564858
121.912956
133.237839
137.288570
131.281614
116.901994
100.972652
73.797703
57.569742
35.366416
23.759604
13.940930
11.938810
9.375811
8.256435
9.537935
8.556843
8.256435
8.226633
9.347796
8.565784
8.897781
9.393692
9.398460
9.296536
10.150671
10.496974
11.100769
11.078715
12.949705
12.167692
13.571978
13.711452
15.158653
14.366508
14.896989
17.099977
15.988946
17.241836
17.921925
19.393563
20.112991
19.875765
22.083521
22.347569
24.025440
25.234818
27.024746
29.526949
32.092929
32.187700
33.165812
33.247471
34.674406
34.782887
34.611821
34.897923
34.242868
32.091737
34.053922
34.858584
34.425855
33.369660
33.676624
34.137964
34.749508
33.922791
34.479499
33.892989
32.972693
35.315752
33.948421
##ZVALUE=255
2.616644
2.817512
2.791882
3.138781
3.144741
2.914667
2.797842
2.842546
3.194809
5.608797
23.144484
54.696798
114.756823
249.399543
398.079753
629.227757
788.285732
963.796973
1015.856862
991.562605
871.650577
697.425008
440.028906
285.089612
149.134994
104.812980
92.916489
100.306869
123.063922
135.957599
143.513680
138.094425
125.781894
102.057457
80.414414
55.756569
37.611723
21.940470
15.819669
9.870529
8.541942
8.002520
8.707643
8.011460
8.403659
8.608699
7.986426
9.027719
9.274483
8.970499
9.966493
10.561943
10.811687
10.663867
11.634827
10.992885
12.467504
13.652444
13.959408
13.128519
13.879538
15.185475
15.509725
15.209913
16.554594
17.232895
18.230677
19.466877
19.782782
20.694733
22.444725
24.963617
25.050640
27.686954
28.151870
28.873682
30.852556
29.655695
29.915571
29.778481
29.165745
30.665994
29.637814
29.281974
30.243993
31.873584
30.933619
30.281544
30.943751
31.616688
31.183958
30.712485
31.335950
31.143427
31.235814
31.022429
##ZVALUE=260
2.500415
2.416968
2.484918
2.631545
2.525449
2.765656
2.391934
2.833605
2.627969
2.837777
3.093481
3.544688
11.430979
32.781959
91.013908
179.658532
365.067720
538.128614
735.203028
989.954472
1015.805006
1015.805006
1015.804410
829.661489
623.564720
368.745923
238.070488
128.678679
91.442466
86.007714
102.165937
126.227736
140.811801
150.050521
144.788623
127.903819
108.015537
79.913735
58.334470
36.070943
24.217963
15.462637
11.438727
8.968711
8.384585
8.457899
8.871555
9.033680
8.905530
9.116530
9.532571
9.728670
10.108948
9.994507
11.122823
10.595918
11.278987
11.607409
12.434721
12.812614
13.071895
14.142990
13.416409
14.694929
15.550852
15.489459
17.101765
17.190576
18.920898
20.166636
21.145940
22.068620
23.570657
24.437904
25.226474
26.058555
26.223660
25.968552
27.020574
27.856827
27.978420
28.376579
27.976632
28.075576
27.856827
28.796792
28.240681
29.378533
28.178692
30.556917
28.086901
29.338598
29.864907
29.089451
30.576587
30.927658
##ZVALUE=265
2.238750
2.164841
2.337694
2.406836
2.310872
2.028942
2.406836
2.242923
2.232790
2.577901
2.456903
2.906919
2.909899
3.160834
6.234646
26.066899
63.082576
161.660910
293.238759
557.570457
782.973766
987.199545
1015.805006
1015.805006
1015.805006
1015.805006
782.209635
548.851490
302.710533
183.579922
98.845959
75.021982
81.239939
111.061931
130.769610
147.829652
154.045820
146.451592
129.860640
105.267763
84.180832
55.988431
38.385987
23.539662
14.603734
10.751486
8.867979
9.084940
9.199977
9.449720
10.266900
10.573864
10.759830
10.803938
11.008978
11.540651
12.125969
12.346506
12.834668
13.448000
13.682842
14.370680
14.763474
14.574528
15.843511
16.419888
16.131997
17.569661
18.403530
19.629598
20.250678
22.466779
22.887588
24.175644
25.212765
25.948882
26.449561
25.127530
26.300550
24.976730
25.937557
25.749803
25.996566
25.545955
26.404858
27.348995
27.619600
28.454661
27.122498
26.931763
26.348829
27.091503
27.332902
28.147697
27.431846
27.480721
##ZVALUE=270
2.163649
2.075434
2.335906
2.054572
2.142787
2.111793
2.180934
2.122521
2.311468
2.344847
2.094507
2.362728
2.566576
2.836585
2.851486
2.809763
3.815889
10.383725
42.955875
105.434656
215.001702
469.835997
723.430514
1015.805006
1015.805006
1015.805006
1015.805006
1015.805006
1015.805006
751.862526
517.453551
263.262987
149.808526
76.790452
65.775514
84.379911
106.713772
133.554935
146.954656
153.193474
148.107409
130.575895
110.061765
80.539584
59.720874
37.152767
25.031567
17.110705
12.369752
10.626912
10.487437
10.829568
11.361837
11.893511
12.226701
12.668967
12.695789
13.549924
13.588667
14.433861
15.400648
15.111566
15.721917
16.058683
15.931726
17.111897
17.204881
18.346906
19.011497
19.791722
21.234751
21.726489
22.220612
24.237633
23.971796
25.384426
24.496913
24.408698
24.839640
24.885535
25.260448
25.660992
25.105476
25.553703
25.355816
25.806427
25.823712
26.048422
26.667714
26.064515
25.209785
26.299953
25.129914
26.159883
26.150942
26.134849
##ZVALUE=275
1.978874
2.043843
2.134442
2.289414
1.960993
1.952648
2.196431
2.142787
2.354980
2.457500
2.352595
2.371669
2.253652
2.577901
2.436638
2.640486
2.656579
2.889633
3.235936
5.703568
19.225478
75.420737
165.277719
378.308892
618.362427
977.937579
1015.805006
1015.805006
1015.805006
1015.805006
1015.805006
977.451801
703.668594
376.598835
212.755799
92.451572
58.911443
62.886477
81.520677
109.988451
127.544999
148.392916
152.886510
147.892833
133.520961
104.546547
85.098743
57.790875
41.414499
27.818680
20.099878
14.409423
12.775660
12.700558
12.269616
12.915730
13.487935
14.130473
15.130639
15.113950
15.214682
16.573668
16.860962
17.127991
17.535686
18.049479
17.465949
19.330978
20.030737
21.253824
21.379590
23.003817
23.730993
23.558736
24.015903
25.151968
24.869442
25.163889
25.439858
26.803613
25.626421
25.012493
24.350882
24.519563
24.785995
25.068521
25.446415
24.799705
24.912953
25.344491
24.657845
24.798512
24.450421
24.286509
24.226904
25.387406
##ZVALUE=280
1.838803
2.008677
2.047420
2.031922
1.855493
2.059937
2.037883
2.100468
1.901984
2.008677
1.834631
2.198815
2.053976
2.116561
2.377629
2.272725
2.611876
2.650619
2.724528
2.952814
3.241897
3.658533
14.249682
45.149922
144.593716
268.761516
520.969629
782.845616
1015.809774
1015.809774
1015.809774
1015.809774
1015.809774
1015.809774
958.226919
553.169847
331.198573
145.521760
70.639849
47.457814
57.624578
81.546903
104.761720
131.580830
143.949986
150.118470
144.605637
127.040744
108.417869
82.351565
62.725544
41.418672
30.027628
20.866990
16.506910
14.268756
14.823675
15.322566
16.033649
16.287565
16.968846
17.255545
17.798543
18.205643
18.968582
19.391775
19.852519
19.307733
20.750761
21.598935
21.971464
22.935867
23.499727
24.888515
25.097728
24.321675
25.034547
25.327802
25.043488
24.553537
24.413466
25.195479
25.067925
23.691654
23.810863
23.986697
23.944974
24.224520
25.345683
22.985935
23.806691
24.783611
23.531914
23.540854
23.884773
23.876429
##ZVALUE=285
1.784563
1.834631
1.661777
1.714826
1.860857
1.770854
1.744628
1.849532
2.064705
1.889467
2.055764
2.072453
2.091527
2.236962
1.959801
2.162457
2.177954
2.213717
2.347827
2.636909
2.466440
2.550483
2.927780
3.342628
6.717443
30.680895
76.027513
201.388597
355.903506
655.383468
915.136933
1015.805006
1015.805006
1015.805006
1015.805006
1015.805006
1015.804410
721.814036
473.958850
233.029723
122.210979
49.962997
38.969517
55.727959
74.846745
104.012489
123.156905
140.893459
148.359537
142.702460
132.026672
108.453631
89.291930
63.085556
47.626495
30.814409
23.998618
19.300580
17.850995
18.210411
18.065572
18.906593
19.356608
18.862486
20.045638
19.906759
20.458698
21.438599
21.378994
22.226572
22.545457
23.759604
24.208426
24.575591
24.363995
25.380850
24.602413
24.396777
24.609566
24.587512
24.228692
24.742484
24.626851
24.105906
24.320483
24.361610
23.945570
23.886561
24.239421
23.988485
23.445487
23.528934
22.847652
22.399426
23.383498
22.661686
##ZVALUE=290
1.757741
1.751781
1.817942
1.622438
1.680851
2.072453
1.919866
2.014637
1.663566
1.934767
1.958609
1.651645
1.956820
2.020597
2.031922
2.026558
2.094507
2.041459
2.226830
2.348423
2.366900
2.573729
2.811551
2.952814
3.118515
3.326535
4.059672
10.486841
47.411919
109.706521
263.733864
468.022823
742.601752
1015.893817
1015.893817
1015.893817
1015.893817
1015.893817
1015.893817
836.793780
558.678508
275.408626
136.270523
50.371885
30.822754
36.922693
49.616694
73.858500
94.542503
120.324492
134.845972
145.024657
143.314004
129.131675
112.459660
85.864663
66.506863
45.675635
35.625696
27.073622
23.068786
21.404624
20.308495
20.965934
20.280480
21.603703
21.116734
22.353530
22.509694
23.589730
23.538470
24.137497
25.323629
24.127960
24.680495
25.149584
25.013685
25.370717
25.466681
25.415421
24.652481
24.958849
25.546551
25.190711
24.992824
23.943782
24.645925
24.562478
24.011731
23.896694
23.397803
23.133755
22.827983
23.269653
22.932887
22.891760
##ZVALUE=295
1.734495
1.624823
1.631975
1.692772
1.670718
1.760721
1.679659
1.722574
1.854897
1.694560
1.659989
1.540780
1.742840
2.037883
1.874566
1.686811
1.793504
1.812577
2.017617
1.961589
2.195835
2.170801
2.198815
2.317429
2.554655
2.705455
2.632737
2.804995
3.288984
5.365610
15.501976
66.335797
155.337453
377.540588
625.294447
996.811986
1015.805006
1015.805006
1015.805006
1015.805006
1015.805006
1009.593606
746.001601
398.897529
216.192603
74.467659
35.139918
24.876595
32.470822
50.341487
67.736506
94.321966
113.716722
134.218931
140.738487
137.510896
128.372908
108.197927
89.065433
66.903830
51.969886
37.051439
29.948950
24.912953
23.031831
22.802949
22.668839
23.082495
23.256540
23.566484
24.233460
25.168657
25.032759
25.473833
25.625825
25.880933
25.475621
25.366545
24.879575
24.966598
25.168657
24.840832
24.824739
24.817586
24.587512
24.353862
25.144815
24.430752
24.384856
23.700595
23.232698
23.737550
22.849441
23.288727
23.172498
22.533536
##ZVALUE=300
1.580715
1.605749
1.618862
1.476407
1.776814
1.661777
1.516938
1.594424
1.603961
1.668930
1.640916
1.606941
1.590848
1.734495
1.613498
1.855493
1.786947
1.780987
1.636744
1.957417
1.899600
1.962781
2.005696
2.279878
2.211928
2.281666
2.287626
2.458692
2.612472
2.684593
2.966523
3.317595
7.710457
41.270852
106.503963
275.422931
480.716825
863.996744
1015.805602
1015.805602
1015.805602
1015.805602
1015.805602
1015.805602
985.423923
575.561523
342.919827
147.995949
68.227649
25.461912
23.583770
33.114552
45.565963
67.350864
87.238550
113.406777
127.056837
137.298703
136.279464
125.517845
110.184550
87.265968
71.309805
52.569509
41.170716
30.993819
26.759505
25.227666
23.400784
24.017692
24.233460
24.379492
24.957657
25.630593
25.946498
26.110411
26.191473
26.066899
26.217699
25.456548
25.203824
25.522709
25.820732
25.347471
25.274754
24.635792
24.829507
24.630427
24.507642
24.521947
24.132729
23.351908
23.687482
22.725463
22.618771
23.067594
##ZVALUE=305
1.672506
1.480579
1.670718
1.618862
1.562834
1.605749
1.538992
1.552701
1.493692
1.618862
1.696944
1.598597
1.700521
1.590848
1.784563
1.651645
1.679659
1.738667
1.664758
1.808405
1.891851
1.829863
1.847744
1.902580
1.949668
2.154708
2.052784
2.191663
2.202988
2.397895
2.519488
2.842546
2.864599
3.178716
4.917979
25.912523
73.391795
214.783549
393.563509
735.327601
1007.160544
1015.805006
1015.805006
1015.805006
1015.805006
1015.805006
1015.805006
779.445767
495.072603
228.066444
110.043883
38.180947
21.534562
24.175644
31.582713
47.491789
64.730644
87.810755
106.308460
125.333667
132.153630
131.741762
123.090744
106.789470
89.370608
66.222548
51.868558
39.861798
31.885505
26.958585
25.073886
24.815798
25.044680
24.245977
25.250912
25.517941
25.603771
25.510788
25.119781
25.425553
25.972724
25.996566
25.754571
25.914907
25.716424
25.448799
25.641918
24.645925
24.854541
24.459958
24.689436
24.028420
23.293495
23.078918
23.125410
23.097992
##ZVALUE=310
1.600981
1.478791
1.499653
1.401901
1.393557
1.374483
1.412630
1.541972
1.521707
1.484752
1.539588
1.581907
1.637936
1.560450
1.537800
1.704693
1.683831
1.645684
1.764894
1.574755
1.920462
1.854897
1.672506
1.946688
1.965761
1.942515
2.029538
2.133846
2.075434
2.219677
2.231598
2.420545
2.405643
2.785921
2.620816
3.174543
3.437400
11.580586
37.557483
129.762888
264.163613
564.482808
866.217017
1015.820503
1015.820503
1015.820503
1015.820503
1015.820503
1015.820503
977.675915
683.532953
351.316929
189.619660
66.767931
27.983785
19.358993
22.543669
32.201409
41.885972
61.224699
77.336431
99.429488
114.025474
124.146938
125.293732
116.912723
104.311705
84.341764
68.503618
51.416755
40.922761
31.931996
27.767420
25.683641
24.669766
24.808645
24.563670
24.693608
25.104880
24.953485
25.165677
25.037527
24.845600
25.099516
25.533438
24.608970
24.776459
24.734735
24.568439
24.887919
24.376512
24.128556
23.581982
23.820996
23.393631
23.065805
##ZVALUE=315
1.442432
1.274943
1.361966
1.283884
1.400709
1.453757
1.492500
1.464486
1.397729
1.462698
1.372695
1.521707
1.314878
1.556873
1.595616
1.620650
1.613498
1.610518
1.513958
1.645684
1.771450
1.722574
1.853704
1.698732
1.804829
1.601577
1.770854
1.753569
1.958609
1.917481
1.823902
2.208948
2.282858
2.099872
2.447963
2.615452
2.773404
2.835989
3.202558
5.920529
19.438863
81.746578
184.546709
424.742699
707.268715
1015.805006
1015.805006
1015.805006
1015.805006
1015.805006
1015.805006
1015.805006
780.610442
422.230959
233.857632
91.591477
40.763617
18.882751
17.950535
22.096634
28.470755
41.566491
55.698752
74.203610
89.873672
107.217431
117.236972
117.755532
113.125443
97.855926
83.678961
66.092610
51.948428
38.989782
32.348633
27.162433
24.959445
23.579597
24.478436
23.957491
24.439692
24.360418
25.062561
25.166869
24.722815
24.826527
25.107861
24.572611
24.955869
24.301410
24.628639
23.830533
24.008751
23.348927
23.935437
23.797750
##ZVALUE=320
1.226664
1.357794
1.379848
1.520514
1.492500
1.379848
1.366735
1.350641
1.350641
1.322627
1.273751
1.469851
1.386404
1.393557
1.515746
1.537800
1.357794
1.441836
1.563430
1.431704
1.613498
1.377463
1.522899
1.559854
1.669526
1.616478
1.614690
1.554489
1.692772
1.856685
2.025962
1.935959
1.933575
1.873970
2.019405
2.162457
2.164841
2.528429
2.393723
2.679825
3.119707
3.570914
8.912683
45.973659
118.729472
317.003727
535.308719
920.535922
1015.790701
1015.790701
1015.790701
1015.790701
1015.790701
1015.790701
973.713994
555.176735
318.280458
131.033659
57.758689
20.845532
15.258789
15.911460
18.828511
26.078820
34.314990
51.135421
65.725446
85.284710
99.336505
110.055804
111.417770
106.114745
96.299648
79.101920
64.044595
48.244596
38.627982
30.842423
26.676655
24.529696
23.830533
23.811460
24.100542
23.624897
24.213791
24.504662
24.560690
24.180412
24.407506
23.942590
23.707747
23.792982
23.918748
23.466945
23.307800
23.014545
##ZVALUE=325
1.331568
1.347661
1.485944
1.388788
1.321435
1.364946
1.301765
1.206994
1.237988
1.553893
1.334548
1.357794
1.246929
1.327991
1.274943
1.396537
1.342893
1.379848
1.412630
1.431704
1.573563
1.466870
1.526475
1.489520
1.627803
1.598597
1.490712
1.643896
1.578927
1.758933
1.697540
1.684427
1.772642
1.871586
2.057552
1.940727
1.984835
2.270937
2.138615
2.270937
2.529621
2.748966
2.780557
3.273487
5.417466
30.639768
81.631541
222.724676
405.524969
776.558518
1015.805602
1015.805602
1015.805602
1015.805602
1015.805602
1015.805602
1015.805602
657.181740
408.619642
184.873939
87.689757
27.208924
14.676452
13.195872
14.104843
18.053651
23.293495
33.982992
45.983791
66.087842
80.205798
96.117854
103.882551
105.637908
102.155805
88.302493
75.079799
58.400631
46.935678
35.615563
30.173659
25.859475
24.847984
23.852587
24.092793
23.499727
23.938417
23.012757
23.510456
23.285747
23.433566
23.364425
23.400784
23.030639
22.957921
23.040771
##ZVALUE=330
1.205802
1.298785
1.154542
1.297593
1.235604
1.184940
1.226664
1.345873
1.311898
1.547933
1.283884
1.401901
1.242757
1.334548
1.231432
1.305938
1.287460
1.393557
1.269579
1.320839
1.499653
1.427531
1.327991
1.612902
1.703501
1.518726
1.541972
1.619458
1.580715
1.539588
1.543760
1.885891
1.769662
1.686811
1.875758
1.713634
1.795888
1.990795
1.959801
2.035499
2.214909
2.320409
2.441406
2.578497
2.981424
3.139973
3.537536
14.318824
45.352578
152.490735
299.502611
611.248612
911.528468
1015.805006
1015.805006
1015.805006
1015.805006
1015.805006
1015.805006
829.834938
538.662672
251.782537
127.476454
44.800639
19.556880
12.154579
12.976527
13.928413
17.137527
23.989677
32.134652
45.829415
59.564710
78.659654
90.232491
99.193454
100.166798
95.432997
86.075664
69.731474
57.961941
43.896437
36.465526
29.868484
26.801825
24.460554
23.684502
22.690892
22.774935
22.748709
22.224784
22.563934
22.134781
22.151470
22.657514
22.338629
##ZVALUE=335
1.168847
1.242757
1.224875
1.224875
1.278520
1.355410
1.221895
1.379848
1.322627
1.332760
1.321435
1.214743
1.190901
1.285672
1.401901
1.365542
1.312494
1.350641
1.308918
1.372695
1.339912
1.360774
1.291633
1.456738
1.412630
1.268983
1.394749
1.581907
1.647472
1.581907
1.551509
1.561642
1.542568
1.560450
1.554489
1.774430
1.712441
1.765490
1.723766
1.672506
1.955628
2.193451
2.012849
2.207756
2.366900
2.445579
2.693534
2.805591
3.002882
6.714463
22.337437
92.680454
199.483633
454.726815
739.371777
1015.805006
1015.805006
1015.805006
1015.805006
1015.805006
1015.805006
975.320935
676.801801
344.929695
180.722475
64.677596
26.574731
13.322830
12.109876
13.491511
14.902949
18.191934
23.034811
32.861829
43.999553
60.739517
72.829723
86.107850
93.538761
94.974637
90.443492
79.411864
69.264770
55.750608
45.470595
35.783648
30.270815
26.185513
23.802519
22.748709
21.979809
21.427870
21.661520
21.673441
21.509528
21.349788
##ZVALUE=340
1.108646
1.288652
1.188517
1.159906
1.177788
1.355410
1.106858
1.212955
1.282692
1.194477
1.222491
1.156926
1.182556
1.347661
1.324415
1.089573
1.256466
1.309514
1.332760
1.364946
1.326799
1.341701
1.306534
1.335740
1.383424
1.290441
1.244545
1.406670
1.286864
1.577735
1.463890
1.523495
1.376867
1.487732
1.619458
1.611710
1.617670
1.799464
1.734495
1.820922
1.788735
1.894832
1.863837
2.113581
1.971722
2.127886
2.270937
2.372861
2.477765
2.759695
2.971888
3.799796
10.793805
54.790974
137.678385
357.539058
603.959560
990.953445
1015.802026
1015.802026
1015.802026
1015.802026
1015.802026
1015.802026
828.744769
434.808731
240.004659
95.849633
38.039684
15.115738
12.945533
13.274550
13.750792
15.356541
17.884970
24.337769
30.943751
44.075847
55.451989
71.698427
82.290769
90.312958
89.515448
85.554719
79.022646
66.209435
55.596828
44.031739
36.523938
28.766990
25.577545
22.650957
21.706820
20.996928
21.032691
20.648837
##ZVALUE=345
1.342893
1.226664
1.312494
1.304746
1.279712
1.220703
1.076460
1.209974
1.229644
1.220703
1.352429
1.329780
1.225471
1.400709
1.201630
1.337528
1.392961
1.286864
1.403689
1.396537
1.400709
1.280904
1.263618
1.331568
1.347661
1.459718
1.483560
1.555681
1.393557
1.342893
1.524687
1.496673
1.571774
1.580715
1.552701
1.719594
1.736879
1.639724
1.677871
1.748800
1.707673
1.655817
1.874566
1.852512
1.905560
1.836419
1.952648
2.284646
2.220869
2.411604
2.456903
2.501607
2.852678
3.147721
5.560517
30.993819
87.380409
235.497952
427.098870
795.643926
1015.913486
1015.913486
1015.913486
1015.913486
1015.913486
1015.913486
973.575711
588.111877
339.072943
134.824514
60.663819
20.886660
13.777614
13.267994
13.388991
14.109612
14.990568
17.708540
21.466613
30.719638
39.840937
54.469705
65.170527
76.450706
82.156658
84.100962
81.721544
73.396564
65.086484
53.660870
44.273734
33.879876
28.846860
24.707913
22.487640
20.626783
##ZVALUE=350
1.141429
1.180768
1.104474
1.144409
1.071692
1.033545
1.182556
1.017451
1.108646
1.111627
1.083612
1.151562
1.040697
1.119971
1.127720
1.014471
1.185536
1.027584
1.099706
1.160502
1.158714
1.212955
1.213551
1.158714
1.223683
1.366735
1.261830
1.340508
1.305938
1.358986
1.421571
1.332760
1.355410
1.243949
1.374483
1.496673
1.441836
1.401901
1.430511
1.457930
1.366735
1.485944
1.811981
1.699924
1.546741
1.631975
1.594424
1.709461
1.748800
1.722574
1.895428
1.954436
2.221465
2.331734
2.565980
2.791882
3.739595
15.512705
50.353408
159.735680
307.284594
630.947948
939.737558
1015.729904
1015.729904
1015.729904
1015.729904
1015.729904
1015.729904
667.603016
419.475436
193.879604
90.604424
27.366877
14.229417
12.284517
12.341738
12.579560
13.114810
14.379621
17.127991
22.150874
27.427673
36.517978
46.650767
58.618784
66.894889
75.455904
77.582598
74.852705
69.501996
58.803558
50.542951
39.979815
32.641888
26.729703
##ZVALUE=355
1.191497
1.131892
1.169443
1.101494
1.065731
1.079440
1.265407
1.076460
1.243949
1.172423
1.137853
1.265407
1.149774
1.197457
1.072884
1.079440
1.158714
1.083612
1.143813
1.214743
1.208782
1.288652
1.336932
1.385808
1.381636
1.207590
1.211762
1.264811
1.237988
1.394749
1.307726
1.355410
1.246929
1.423955
1.337528
1.386404
1.438856
1.384616
1.489520
1.391768
1.556873
1.648664
1.559854
1.735687
1.663566
1.538992
1.786947
1.574755
1.713634
1.709461
1.957417
2.069473
1.946688
2.255440
2.191663
2.361536
2.503991
2.514720
3.052950
8.003712
28.413534
110.924840
227.647424
477.082729
760.860443
1015.805006
1015.805006
1015.805006
1015.805006
1015.805006
1015.805006
816.071033
521.779656
236.042738
112.585425
35.978556
16.397834
11.920929
12.076497
12.464523
12.297630
13.273954
13.780594
15.773773
18.949509
25.128722
31.804442
41.727424
50.617456
61.192513
66.560507
70.802569
69.508553
63.237548
57.062507
46.884418
##ZVALUE=360
1.283884
1.233816
1.183748
1.150966
1.229644
1.013875
1.202822
1.185536
1.012683
1.015663
1.235604
1.207590
1.223683
1.257658
1.194477
1.237988
1.166463
1.281500
1.027584
1.418591
1.203418
1.338720
1.382828
1.319647
1.320839
1.169443
1.365542
1.314878
1.282692
1.339912
1.415610
1.218915
1.485944
1.452565
1.476407
1.367927
1.408458
1.372695
1.480579
1.524687
1.535416
1.523495
1.542568
1.536608
1.603961
1.672506
1.684427
1.718998
1.714826
1.621842
1.847744
1.803637
1.945496
2.029538
2.095699
1.986623
2.187490
2.417564
2.426505
2.612472
2.983809
4.134774
12.481809
55.712461
132.842660
331.268907
570.738912
962.757468
1015.805006
1015.805006
1015.805006
1015.805006
1015.805006
947.302580
636.830926
315.278769
164.997578
60.907602
24.948716
12.229681
11.355877
11.379719
11.577606
11.661649
11.984706
12.717843
13.991594
16.705990
20.678639
27.499795
34.989715
45.478940
51.966906
59.777498
62.831640
63.726902
##ZVALUE=365
1.212955
1.170635
1.210570
1.099706
1.040697
1.167655
1.117587
1.030564
1.081824
1.033545
1.130700
1.044869
1.117587
1.208782
1.174808
1.350641
1.114607
1.149774
1.215935
1.200438
1.157522
1.306534
1.088977
1.357794
1.389980
1.272559
1.257658
1.192689
1.286864
1.247525
1.368523
1.250505
1.358986
1.318455
1.421571
1.453757
1.455545
1.566410
1.476407
1.533628
1.518726
1.573563
1.349449
1.437664
1.556873
1.402497
1.529455
1.532435
1.540780
1.631975
1.732707
1.735687
1.892447
1.808405
1.982450
1.896620
1.858473
1.995564
2.266765
2.408624
2.321601
2.624989
2.964735
3.357530
5.714893
30.254722
83.062649
223.162770
417.518616
785.334706
1015.805602
1015.805602
1015.805602
1015.805602
1015.805602
1015.805602
799.504519
429.551005
236.227512
86.161494
35.092831
13.208985
10.745525
10.556579
10.587573
10.721684
10.932684
11.238456
11.437535
12.873411
14.706850
18.562675
23.002625
31.081438
37.938952
45.997500
##ZVALUE=370
1.099706
1.050830
1.183748
1.051426
1.270771
1.192689
1.120567
1.249909
1.053810
1.092553
1.027584
1.270771
1.168847
1.045465
1.073480
1.234412
1.223683
1.197457
1.321435
1.288652
1.160502
1.111627
1.251698
1.136661
1.350641
1.159906
1.362562
1.288652
1.352429
1.209974
1.392961
1.354814
1.266599
1.204610
1.416802
1.386404
1.190901
1.398921
1.410842
1.313686
1.506805
1.464486
1.445413
1.291633
1.346469
1.425743
1.394749
1.456738
1.677871
1.577735
1.542568
1.612902
1.634955
1.831651
1.555681
1.688600
1.641512
1.814961
1.943707
2.198815
2.114773
2.393723
2.577901
2.610683
2.835989
3.131628
3.725886
15.690923
54.759979
179.657936
338.171721
648.213625
950.433612
1015.813947
1015.813947
1015.813947
1015.813947
1015.813947
915.204883
520.685911
297.070742
117.103457
54.544806
19.278526
11.030436
9.595752
9.639859
9.721518
9.668469
9.926558
9.882450
10.386705
11.346936
13.319850
15.796423
21.230578
##ZVALUE=375
1.072884
1.153946
1.042485
0.854731
1.181960
1.040697
1.084805
1.054406
1.116991
1.063943
0.902414
1.162887
1.083612
1.215935
1.029968
0.952482
1.133680
0.966787
1.213551
1.039505
1.182556
1.035929
1.163483
1.272559
1.118779
1.153946
1.118779
1.124740
1.076460
1.160502
1.180768
1.002550
1.287460
1.231432
1.184940
1.080632
1.096725
1.278520
1.245737
1.436472
1.365542
1.301765
1.200438
1.336932
1.321435
1.322627
1.211762
1.354814
1.342893
1.377463
1.498461
1.398921
1.436472
1.426935
1.552701
1.597404
1.572967
1.701713
1.659989
1.749992
1.760721
1.836419
1.994967
2.154708
2.078414
2.185702
2.532601
2.600551
3.135800
8.025765
30.060410
119.660497
261.003375
574.957728
875.172615
1015.751958
1015.751958
1015.751958
1015.751958
1015.751958
1015.751958
654.675961
411.318541
201.634765
100.444555
32.188892
13.872981
8.990765
8.907914
8.886456
8.920431
9.046793
9.226799
9.378791
9.512901
10.455847
##ZVALUE=380
1.210570
1.201630
1.303554
1.391768
1.282692
1.349449
1.269579
1.190901
1.384616
1.318455
1.329780
1.328588
1.301765
1.284480
1.143813
1.188517
1.211762
1.369715
1.325607
1.207590
1.355410
1.317859
1.447797
1.259446
1.251698
1.259446
1.344681
1.434684
1.342893
1.260638
1.381636
1.384616
1.532435
1.485944
1.571774
1.509786
1.324415
1.358986
1.567602
1.410842
1.376867
1.437664
1.512766
1.545548
1.450777
1.598597
1.492500
1.672506
1.498461
1.551509
1.606941
1.636744
1.620650
1.711845
1.717806
1.657605
1.631975
1.738667
1.676679
1.732707
1.879930
2.003908
1.929998
1.938939
2.037883
2.148747
2.230406
2.554655
2.775788
3.185868
3.406405
5.314946
16.863942
80.344677
192.023516
457.313657
743.965507
1016.013026
1016.013026
1016.013026
1016.013026
1016.013026
1016.013026
888.493657
591.289997
283.865929
145.320892
50.240755
20.927787
9.863973
8.664727
8.506775
8.535981
8.755922
8.674860
8.877516
##ZVALUE=385
1.034737
0.881553
1.046658
1.054406
0.962615
1.137853
0.936985
1.023412
0.996590
1.038909
1.072884
1.071692
1.025796
1.055598
1.078844
1.064539
1.101494
1.095533
1.219511
1.054406
1.083612
0.932813
1.129508
1.090765
0.992417
1.028776
1.132488
1.166463
0.975728
1.150966
1.148582
1.187921
1.146793
1.371503
1.323819
1.162887
1.197457
1.272559
1.289845
1.270771
1.135468
1.380444
1.290441
1.203418
1.383424
1.167655
1.255870
1.328588
1.199841
1.259446
1.197457
1.415610
1.269579
1.287460
1.291633
1.470447
1.340508
1.365542
1.516938
1.648664
1.402497
1.672506
1.615882
1.631975
1.843572
1.947880
1.907945
2.263784
2.284646
2.379417
2.642870
2.976656
2.995729
3.690720
8.769631
48.183799
125.016570
325.148702
572.646856
989.820957
1015.805006
1015.805006
1015.805006
1015.805006
1015.805006
1015.805006
782.170892
421.584845
235.901475
94.241500
37.725568
11.438727
8.269548
7.710457
7.455945
7.598996
##ZVALUE=390
1.014471
0.994802
0.999570
1.096725
0.974536
0.957847
0.938773
1.096725
1.114607
1.027584
0.985861
1.002550
0.991821
1.082420
1.147985
1.049638
1.055598
1.012683
1.080632
1.016855
1.040697
0.987649
1.019835
1.113415
0.944734
1.004934
1.122952
1.249909
1.058578
1.127720
1.195669
1.207590
1.297593
1.210570
1.191497
1.251698
1.005530
1.169443
1.152754
1.295805
1.137853
1.289845
1.355410
1.322627
1.339912
1.281500
1.312494
1.228452
1.217723
1.154542
1.301765
1.242757
1.224875
1.339912
1.342893
1.347661
1.245737
1.353621
1.421571
1.561642
1.451969
1.416802
1.553893
1.390576
1.548529
1.667738
1.841784
1.946688
2.004504
2.204776
2.283454
2.685785
2.625585
2.604723
2.708435
3.091693
4.328489
22.982955
74.812770
240.772963
468.112826
895.626545
1015.802622
1015.802622
1015.802622
1015.802622
1015.802622
1015.802622
1000.166535
621.559620
355.028510
139.415860
63.989758
19.735694
9.174943
7.479787
##ZVALUE=395
1.160502
1.151562
1.038909
1.042485
1.063943
1.066923
1.083612
1.011491
1.071692
0.952482
1.036525
1.147985
1.125932
0.956655
0.853539
1.039505
1.148582
1.090765
1.070499
1.150966
1.003742
0.983477
0.899434
1.215935
1.079440
1.130700
1.064539
1.071692
1.122952
1.156926
0.924468
1.164675
1.114607
1.058578
0.967979
1.111627
1.266599
1.278520
1.179576
1.232624
1.154542
1.076460
1.138449
1.154542
1.166463
1.034737
1.286864
1.183748
1.301765
1.047850
1.346469
1.197457
1.333952
1.441836
1.338720
1.390576
1.427531
1.484752
1.334548
1.398921
1.433492
1.488924
1.454949
1.563430
1.590848
1.642704
1.578927
1.867414
2.181530
2.209544
2.304912
2.280474
2.495646
2.422929
2.611876
2.497435
2.558827
2.894998
3.313422
12.166500
44.339895
162.685513
327.058434
671.392679
981.962681
1015.805006
1015.805006
1015.805006
1015.805006
1015.805006
1015.805006
785.262585
497.570634
228.963494
106.684566
33.849478
##ZVALUE=400
0.955462
1.002550
0.937581
0.988841
1.146793
1.070499
0.935793
1.024604
1.000762
0.988841
0.866652
1.054406
0.924468
0.946522
1.033545
1.037717
1.021624
1.035929
0.959635
1.115799
1.080632
1.056790
0.983477
1.021624
0.955462
0.858903
1.115799
1.148582
1.030564
0.959635
0.975728
1.188517
1.147985
1.085997
1.164675
1.147985
0.948906
1.029968
1.048446
1.182556
1.152754
1.170635
1.283884
1.219511
1.144409
1.250505
1.228452
1.309514
1.192689
1.081824
1.327991
1.408458
1.233816
1.339912
1.335740
1.406670
1.294613
1.322627
1.227856
1.453757
1.496673
1.443624
1.594424
1.533628
1.568794
1.716614
1.790524
1.695752
1.889467
1.889467
2.054572
2.098680
2.143979
2.155900
2.032518
2.196431
2.349615
2.439618
2.550483
2.736449
2.895594
7.067919
24.786592
94.004869
204.653740
473.278761
772.979856
1015.805006
1015.805006
1015.805006
1015.805006
1015.805006
1015.805006
951.931477
627.615452
319.817662
##END
