##TITLE=
##FORMAT=SPECTACLE-ASCII V-1.2
##DATA TYPE=ULTRAVIOLET SPECTRUM
##SECOND TYPE=ULTRAVIOLET SPECTRUM
##DATE=09/27/17
##TIME=12:26:30
##SPECTROMETER/DATA SYSTEM=SPECTACLE
##XUNITS=NM EM
##YUNITS=ENERGY
##YFACTOR=1
##FIRSTX=220
##LASTX=410
##NPOINTS=96
##3DDATA=Equidistant
##ZUNITS=NM EX
##FIRSTZ=210
##LASTZ=400
##ZPOINTS=39
##XYDATA=(Y..Y)
##ZVALUE=210
3.464818
2.774596
3.335476
2.901554
3.156662
3.443956
3.247857
3.872514
3.968477
3.053546
4.030466
3.181696
3.526807
4.246831
3.573895
4.429817
4.237890
3.868937
4.857779
4.657507
4.191995
5.201697
5.534887
5.466938
5.595684
5.427599
6.718636
6.129742
6.369948
6.504655
7.211566
5.765557
6.734729
6.107688
6.893873
6.947517
6.842613
6.611943
6.842613
6.638765
7.062554
7.153749
8.491874
8.583665
7.905960
7.856488
8.395910
6.979704
7.191896
8.788705
8.497834
7.836819
7.512569
7.692575
8.271933
7.905960
8.187890
9.598732
8.707643
9.210706
8.539557
8.358955
8.758903
8.835793
8.368492
10.776520
8.798838
11.591911
11.503696
13.115406
15.415549
18.033981
20.003915
22.278428
23.970604
22.961497
23.309588
23.354888
22.815466
21.089911
19.898415
17.885566
17.024875
14.946461
11.569858
11.331439
10.167956
9.809732
7.894635
8.403659
8.637905
8.316636
8.541942
7.854700
8.087754
9.243488
##ZVALUE=215
6.005764
6.812811
6.370544
5.141497
5.496740
4.731417
4.585981
4.787445
5.600452
5.081892
6.238818
4.803538
5.073547
4.529953
4.361868
4.197955
4.462600
3.937483
5.027652
4.443526
5.003810
5.516410
5.526543
5.378723
5.288720
5.674958
6.336570
5.684495
5.319715
5.846620
6.600618
6.749630
6.409883
6.887913
6.649494
6.720424
7.140636
6.876588
6.900430
6.997585
8.214712
8.086562
8.472800
8.276701
8.017421
6.917715
8.438826
8.395910
8.259416
8.736849
8.868575
7.690787
8.893609
9.943843
8.058548
8.297563
8.419752
8.488894
8.433461
8.872747
8.241534
8.550882
9.396672
9.463429
8.622408
8.601546
9.463429
11.886954
9.867549
11.802912
14.770627
16.180873
18.922687
20.867586
21.529794
21.944642
23.401976
22.644997
21.914840
21.314621
17.785430
16.581416
16.754866
13.593435
12.568831
11.136532
10.122657
9.798408
8.224845
8.165836
8.491874
8.221865
8.847713
8.266568
9.109974
8.700490
##ZVALUE=220
18.989444
18.490553
20.702481
24.289489
20.674467
19.102693
15.214682
12.631416
10.234714
10.001659
10.578632
11.736751
11.704564
10.515451
9.445548
8.855462
6.895661
5.311966
5.944967
5.340576
5.217791
5.590916
6.242990
5.961657
5.880594
6.083846
5.503893
6.911755
6.734729
6.233454
6.156564
6.335974
6.794930
7.228851
7.299781
7.990599
7.047653
8.389950
8.073449
7.741451
7.824898
8.539557
7.171631
8.444786
8.284450
7.895827
8.836985
9.544492
9.178519
9.365678
8.961558
9.110570
9.588599
8.768439
9.887815
9.143949
10.108948
9.070635
10.807514
9.487867
9.759665
10.293722
9.114742
11.245608
10.793805
10.273457
10.748506
12.175441
12.268424
14.056563
14.995933
17.087460
18.762946
22.467971
23.360848
23.824573
23.795962
24.070740
23.362637
21.685958
19.985437
18.668771
17.932653
15.172958
15.300512
13.316870
11.991858
10.609627
10.985732
10.881424
9.527802
10.257959
9.781718
9.668469
9.876490
9.134412
##ZVALUE=225
32.075644
34.551620
51.425695
62.983632
73.684454
76.937675
71.128607
59.738755
43.552518
34.081936
23.683906
22.442937
23.489594
22.412539
26.050806
22.683740
22.417903
15.760660
13.623834
10.115504
7.433891
6.827712
6.429553
7.001758
6.227493
6.914735
7.654428
6.795526
6.606579
7.423759
7.527471
7.666945
7.872581
8.434653
8.001924
8.917451
8.890629
8.223653
9.627938
8.818507
8.605719
8.741617
8.529425
9.442568
9.501576
9.875894
9.693503
8.525848
8.404851
10.465980
11.123419
10.014772
10.249615
10.235906
11.103749
11.460781
10.049939
11.344552
11.168718
10.935664
12.885928
12.292862
12.329817
11.476874
12.479424
13.109446
13.799667
15.360713
14.368892
17.311573
18.777847
20.331740
21.891594
22.671819
25.573969
25.182962
24.907589
23.376942
24.316907
23.057461
22.442937
19.879937
20.162463
17.010570
16.705990
15.679598
15.546679
16.248822
14.786720
12.991428
14.083982
12.828708
13.581514
13.286471
12.478828
13.347864
##ZVALUE=230
32.069683
35.532713
54.033995
96.833706
130.488873
168.573856
195.754766
200.031996
189.353824
151.505470
118.508935
85.609555
56.436658
46.575665
44.823885
48.598647
46.090484
47.909617
43.352842
35.904646
27.496815
21.527410
14.043450
10.806918
8.079410
7.298589
7.569790
7.547736
7.716417
7.729530
8.388758
8.384585
9.287596
8.773804
9.710789
8.676648
8.909702
8.618832
9.678602
8.962750
10.307431
9.690523
10.060668
9.647608
10.488629
10.734797
11.015534
11.161566
10.036826
11.155605
11.054873
12.179613
12.237430
10.706782
12.520552
13.074875
14.172792
14.930964
14.314651
14.377832
13.902783
14.381409
16.227961
15.538931
16.073585
17.934442
18.587708
18.089414
19.588470
21.259785
25.089979
26.041865
27.917624
28.873682
31.446815
32.053590
32.623410
31.809807
32.301545
30.554533
28.532743
27.716756
25.684834
23.723841
24.321675
24.408698
22.357702
22.959709
21.955967
20.218492
20.215511
20.100474
19.699931
19.204617
18.456578
19.257665
##ZVALUE=235
13.093948
13.860464
29.851794
67.802668
119.784474
200.750828
271.079540
364.197493
415.446758
426.594615
389.363766
333.055854
232.044458
166.035891
108.059645
83.382726
72.728992
75.607896
82.297921
82.580447
75.951815
63.941479
53.471923
36.571622
25.857687
18.051863
14.289618
9.864569
9.141564
9.228587
9.205937
8.660555
10.212660
10.084510
9.070635
9.708405
9.817481
9.981990
10.508895
9.872913
10.694861
10.602474
10.363460
11.061430
10.854602
11.642575
11.288524
11.615753
11.893511
12.468696
12.519956
11.603832
13.153553
13.937950
14.398694
13.945699
15.021563
16.161799
15.980601
17.845631
18.481612
16.656518
19.101501
20.982623
20.958781
19.796491
21.397471
22.653937
24.648905
25.732517
29.514432
32.164454
33.078790
35.038590
37.260652
36.695600
37.479997
39.504766
36.799908
36.465526
36.518574
35.686493
34.545660
33.330917
32.340884
31.820536
31.102896
30.646920
30.723810
27.435422
28.790832
27.814507
26.928782
27.654767
29.419661
27.760863
##ZVALUE=240
3.106594
3.333688
6.290674
18.845797
42.451620
100.122690
173.472762
307.458639
440.181494
589.218736
669.972897
701.774955
654.385686
552.567840
407.242775
293.668509
177.953839
126.727819
98.045468
98.197460
113.943815
110.896826
111.812949
100.534558
78.716874
62.809587
47.812462
32.305717
23.021698
16.186833
13.286471
10.530949
10.417700
10.774732
10.946989
11.654496
11.284947
11.538863
11.205673
10.738969
10.177493
10.337830
10.818839
10.820627
11.574626
11.248589
12.756586
11.900663
11.926889
12.509823
12.955666
13.259649
13.772845
15.140772
14.997721
16.199946
16.217828
16.807914
16.921759
18.456578
18.888712
19.599795
20.076632
21.132827
21.484494
22.515655
24.418831
24.351478
27.271509
30.982494
31.916499
34.790635
38.031936
37.933588
39.885640
43.373704
41.186810
42.649508
39.707422
40.773749
40.364861
40.177703
41.860938
37.963986
38.194656
38.226843
37.971735
38.587451
35.402775
36.824942
34.753680
34.489632
32.636523
32.800436
32.345653
34.890771
##ZVALUE=245
2.988577
2.492666
3.005862
3.076792
4.442930
15.721917
37.380457
98.306537
184.420943
303.061604
510.593653
669.533014
833.404660
885.393620
863.244534
768.188834
593.291521
436.546803
293.721557
169.080496
117.796659
103.988647
111.548901
124.937892
130.503774
120.256543
107.987523
88.967681
73.019862
55.714846
35.576820
26.085973
17.281771
12.797713
10.966659
10.567904
10.360479
10.442734
10.812879
10.155439
9.991527
10.412931
10.191798
9.746552
10.381937
10.498762
10.367632
10.237694
11.315942
11.016726
11.026859
12.321472
13.002753
12.784600
12.571812
13.671517
13.898611
13.947487
15.434623
16.076565
15.980601
16.988516
17.214417
17.525554
19.977689
19.995570
21.196604
22.832751
24.023652
25.917888
27.857423
30.407906
33.260584
36.180615
36.150813
37.472844
39.283633
38.355589
39.131641
40.897727
35.687685
37.537813
36.885738
37.382841
35.369992
37.707686
36.542416
35.454631
36.255717
36.704540
32.690763
35.752654
33.802986
34.341812
33.241510
32.622814
##ZVALUE=250
2.653599
2.265573
2.803802
2.295971
2.636909
2.558827
3.412962
9.429455
34.262538
72.402954
188.195705
320.676565
485.202670
718.997717
881.568789
1014.910936
1015.805006
951.989889
818.738937
572.413802
390.685797
248.961449
140.631795
104.496479
105.613470
121.166706
135.403872
136.050582
131.452680
122.588873
103.928447
78.711510
60.316920
38.078427
25.981665
15.959740
11.530519
9.773970
9.669662
8.793473
9.496808
8.928776
9.265542
9.133816
8.558631
9.541512
9.340644
9.815693
8.961558
10.910630
9.805560
10.282993
11.252761
11.442900
11.408925
11.857748
12.294650
12.411475
13.539791
13.475418
14.421940
14.698505
14.141798
15.826821
17.061830
17.149448
16.941428
19.596815
20.558834
22.903681
24.301410
25.863647
28.167963
29.327869
32.396913
31.877756
32.193661
31.943917
33.633709
32.705665
34.899712
33.537745
34.698844
34.143925
32.777786
32.248497
32.576919
32.838583
33.476949
30.388832
31.281710
33.496618
32.707453
31.700730
32.545924
32.766461
##ZVALUE=255
2.091527
2.093911
2.268553
2.436638
2.439618
2.522469
2.585649
2.636909
3.063679
6.594658
20.240545
64.073801
132.306814
289.864540
445.168614
705.883503
906.381011
1015.805006
1015.805006
1015.805006
1002.636552
830.709934
534.348488
341.330767
178.079605
118.519664
97.276568
107.152462
125.952959
137.077570
145.275593
141.452551
128.243566
102.163553
80.768466
55.429935
39.321780
23.266673
15.321970
10.097623
8.824468
8.918643
8.734465
9.097457
9.148717
8.043647
8.474588
8.946657
8.764863
9.033680
9.771585
9.102821
10.254979
9.998679
10.727644
10.303855
10.692477
11.225939
11.432767
12.146831
13.108850
12.486577
12.793541
13.427734
14.695525
14.456511
15.418530
16.850829
18.184781
18.350482
20.752549
21.705627
23.323894
25.197864
24.803877
26.494861
26.494861
27.406812
30.064583
28.809905
29.672980
27.215481
28.632879
29.094815
28.805733
28.263927
28.263927
30.783415
29.492974
28.841496
29.375553
29.710531
29.906631
28.957725
30.177832
29.376745
##ZVALUE=260
2.415776
2.375841
2.397895
2.421737
2.417564
2.323985
2.244711
2.626777
2.558827
2.817512
2.983809
3.903508
9.754896
39.431453
90.421438
218.535662
370.791554
635.373592
859.533548
1016.039848
1016.039848
1016.039848
1016.039848
1010.984778
713.008642
490.551591
273.366570
165.649652
98.218918
88.205934
100.193620
124.970675
141.090751
148.027539
147.131681
127.428770
110.269785
79.844594
58.069825
35.744905
24.499893
15.282631
11.427999
8.426905
8.184910
8.565784
8.313656
8.700490
8.717775
8.703470
8.932948
9.300709
8.872747
9.669662
9.435415
10.433793
10.158420
11.211634
10.576844
11.389852
11.847615
11.618733
11.600852
12.549758
13.140440
14.546514
13.828874
15.596747
16.408563
17.009974
18.501878
20.425916
21.699667
23.118854
23.464561
24.095774
25.092959
24.416447
24.638772
25.322437
26.064515
24.436712
24.717450
25.484562
27.036667
26.677847
25.609732
26.846528
27.052760
27.385950
27.121902
26.589632
27.951598
27.306676
27.624965
27.967691
##ZVALUE=265
1.778603
1.759529
2.186894
1.849532
1.747608
1.939535
2.208948
2.143979
2.257824
2.207756
2.322793
2.526641
2.566576
2.996922
6.845593
23.138523
80.685616
158.327818
274.722576
562.704802
834.512711
1015.805006
1015.805006
1015.805006
1015.805006
1015.805006
963.011980
625.721812
407.681465
207.596421
120.790601
78.700781
84.213614
111.259818
130.831599
147.203803
151.501894
144.706964
130.763650
104.122758
82.837939
54.065585
38.154721
22.188425
15.385747
10.096431
9.406805
8.414984
8.331537
8.461475
7.831454
8.526444
9.112954
9.783506
9.753704
9.707808
10.321736
10.119677
9.989738
10.561943
11.162758
11.786819
11.750460
12.687445
12.220740
13.717413
13.333559
14.076829
14.628768
15.869737
17.193556
18.785000
18.905997
19.861460
20.859838
22.776723
22.255778
22.643805
24.015903
23.251772
24.104714
23.029447
23.597479
23.641586
24.016500
24.090409
24.197698
24.048686
24.730563
23.865700
24.523735
24.940968
23.966432
25.221705
25.067925
26.613474
##ZVALUE=270
1.837611
1.838803
1.802444
2.039671
1.926422
2.087951
2.324581
2.322793
2.204776
2.378821
2.106428
2.406836
2.446771
2.441406
2.848506
2.709627
4.004836
13.236403
37.434697
127.529502
246.988535
427.619815
782.725811
1016.009450
1016.009450
1016.009450
1016.009450
1016.009450
1016.010046
899.748802
613.996983
330.337882
184.139609
84.145665
67.428946
86.290836
108.227730
131.441951
147.687793
152.610540
147.015452
131.433606
109.759569
79.969764
59.883595
35.313964
24.256706
16.224980
11.736751
9.269714
8.859634
8.798838
8.913875
9.748936
9.762645
10.358691
10.403991
10.897517
11.186600
10.931492
11.304617
12.038946
11.552572
12.091994
12.499690
13.187528
13.601780
15.093684
15.295744
16.044974
16.841888
17.511845
18.499494
20.735860
20.069480
21.613836
20.700693
22.586584
21.595955
21.800995
21.833777
22.621751
22.429824
22.971630
21.927953
22.648573
22.829771
23.470521
23.260713
23.400784
22.296906
23.532510
22.988915
23.026466
22.800565
24.403930
##ZVALUE=275
1.619458
1.695752
1.507998
1.446605
1.493692
1.644492
1.668930
2.020597
1.923442
2.074838
2.018809
1.900792
1.932979
2.000928
2.417564
2.420545
2.401471
2.548695
3.119707
6.468892
22.260547
62.332749
190.203786
369.480848
709.385872
983.665586
1015.805006
1015.805006
1015.805006
1015.805006
1015.805006
1015.805006
799.104571
433.931947
248.708725
107.262731
63.565969
62.198639
79.074502
108.264685
130.275488
147.417784
153.694749
148.677826
132.084489
105.654001
83.282590
57.472587
42.040944
25.920868
17.530918
11.767745
10.516644
9.538531
9.247661
10.123849
10.249615
10.348558
10.580420
10.877848
11.736751
11.808872
12.288690
12.076497
12.928843
12.690425
13.596416
14.273524
14.440417
16.241670
16.646981
17.126799
18.308759
19.458532
19.586682
20.291805
20.359755
21.054745
20.529628
21.114945
21.283627
21.732450
21.092892
21.766424
21.302700
21.568537
22.324920
21.267533
22.532940
22.315979
21.977425
22.040606
21.708608
21.588802
22.606850
22.025704
##ZVALUE=280
1.545548
1.591444
1.565814
1.504421
1.694560
1.578927
1.564622
1.596808
1.637936
1.654625
1.881719
1.878738
1.780987
1.965761
1.910925
2.298951
2.173781
2.189875
2.388954
2.558827
2.812743
3.305674
14.548898
48.610568
152.894855
292.198062
568.811893
854.167938
1015.802622
1015.802622
1015.802622
1015.802622
1015.802622
1015.802622
960.488915
553.978682
325.786471
144.388676
72.970986
47.206879
56.963563
83.445907
104.315877
130.908489
143.802762
150.333643
143.830776
125.968456
107.930899
79.808831
60.427785
39.248466
27.281642
16.954541
13.496876
10.964870
10.286570
10.885596
10.664463
11.531711
11.848807
12.136698
12.157559
13.004541
13.351440
13.425946
14.115572
14.046431
15.367866
15.633702
16.359687
17.502904
18.090606
19.052625
19.754767
19.925833
20.061731
20.223856
20.315647
21.123886
20.977855
20.792484
20.477772
20.200610
20.541549
20.586848
21.375418
20.460486
20.746589
20.406842
21.541715
21.180511
20.969510
20.714998
21.130443
20.886660
##ZVALUE=285
1.265407
1.163483
1.353621
1.338720
1.271963
1.291633
1.302958
1.464486
1.516938
1.317859
1.500845
1.509786
1.664758
1.415610
1.598597
1.590848
1.697540
1.721978
1.767874
2.067685
2.366900
2.144575
2.374649
2.820492
7.166862
24.199486
83.671808
177.120566
391.779542
645.073652
945.050716
1015.636921
1015.636921
1015.636921
1015.636921
1015.636921
1015.636921
742.899776
468.207598
220.857859
110.896826
45.868754
37.310719
54.381490
74.136853
105.214715
122.576952
139.010549
145.519972
140.743852
128.203630
106.197000
85.944533
58.174729
42.562485
26.043653
19.065738
13.932586
12.914538
11.813641
11.922717
12.149811
12.615919
12.377501
13.889670
13.993979
13.903975
14.440417
15.243888
16.569495
16.446710
17.508864
17.772913
19.161701
19.451976
18.933415
20.016432
19.568801
20.076632
20.367503
20.142794
20.246506
20.193458
20.788908
20.523667
20.717978
21.358728
20.448565
20.534992
20.433664
20.766854
20.907521
20.963550
20.699501
20.290613
20.268559
##ZVALUE=290
1.385808
1.252890
1.535416
1.349449
1.290441
1.401901
1.295805
1.320839
1.439452
1.548529
1.525879
1.446605
1.603961
1.696944
1.592636
1.762509
1.707673
1.660585
1.930594
1.814961
2.055764
2.075434
2.270937
2.366900
2.540946
3.021955
3.417730
13.704896
39.661527
126.463771
247.523785
537.800789
833.267570
1015.805006
1015.805006
1015.805006
1015.805006
1015.805006
1015.805006
941.760540
630.654693
317.340493
164.530873
60.911775
33.173561
36.648512
50.594807
74.194670
94.263554
119.729638
134.713650
142.384768
141.123533
125.826597
107.061863
80.422759
62.078834
40.636659
30.739903
20.315647
16.707778
13.856888
13.509989
13.569593
13.697743
14.337897
14.415979
16.009808
16.266704
16.842484
17.285943
18.184781
19.455552
19.773841
19.347668
20.342469
19.968748
19.668937
20.562410
20.427704
20.564795
20.606518
19.942522
20.887852
21.174550
20.790696
21.447539
20.656586
21.062493
20.453930
20.881891
20.867586
20.201802
20.073652
19.725561
19.913912
##ZVALUE=295
1.243949
1.328588
1.374483
1.342893
1.250505
1.226664
1.290441
1.422763
1.549721
1.364946
1.431704
1.526475
1.553893
1.534820
1.513958
1.634955
1.469851
1.502633
1.668930
1.627803
1.619458
1.779795
1.939535
2.240539
2.195835
2.288818
2.483726
2.764463
3.234744
4.912615
16.180873
69.947839
161.914825
397.806764
666.597486
1015.805006
1015.805006
1015.805006
1015.805006
1015.805006
1015.805006
1015.805006
822.958946
441.486835
242.909789
86.655617
39.772987
24.875998
31.458735
49.725771
67.022443
93.556643
111.525655
128.047466
137.079954
133.737922
123.293996
102.044940
83.903670
60.184598
45.336485
29.846430
22.790432
17.416477
15.706420
14.918447
15.729666
15.944839
16.073585
17.159581
17.467737
18.310547
19.264817
19.997954
20.309687
20.282865
20.521879
20.235777
20.442605
20.767450
20.832419
21.174550
20.992756
21.893978
20.837784
21.430850
20.866990
20.555854
20.583868
20.316839
20.739436
20.534992
20.610690
20.466447
20.773411
20.154715
##ZVALUE=300
1.083612
1.236796
1.165867
1.099706
1.105666
1.384616
1.351833
1.287460
1.427531
1.139641
1.238585
1.380444
1.272559
1.316667
1.509786
1.474619
1.395941
1.582503
1.748800
1.494884
1.847744
1.587868
1.573563
1.705885
1.848936
1.920462
2.097487
2.219677
2.460480
2.432466
2.986789
3.274679
7.768869
42.589903
107.618570
286.069512
506.109595
917.087793
1015.805602
1015.805602
1015.805602
1015.805602
1015.805602
1015.805602
985.955000
566.161871
339.689851
150.738955
68.124533
24.734735
20.859838
30.652881
42.621493
63.839555
83.371997
108.213425
122.284889
131.206512
129.984617
118.800998
103.313923
80.471635
63.449740
45.581460
33.720732
23.618937
19.530654
17.591715
17.226934
17.125607
17.536879
18.537641
19.356608
19.481778
20.280480
20.718575
20.777583
20.782948
20.952821
21.410584
21.663904
21.650791
21.729469
21.461844
21.476746
21.979809
21.399856
21.879673
21.923780
20.274520
20.445585
20.765662
20.857453
19.822717
20.625591
20.530820
##ZVALUE=305
1.196861
0.993609
1.134872
1.076460
1.231432
1.165867
1.265407
1.298785
1.187921
1.244545
1.338720
1.142621
1.182556
1.287460
1.306534
1.229644
1.264811
1.309514
1.416802
1.470447
1.588464
1.559854
1.688600
1.658797
1.704693
1.927614
1.761913
1.824498
1.836419
2.133846
2.323985
2.445579
2.612472
2.921820
4.703999
24.873614
69.716573
208.185911
384.794474
740.751624
1015.697718
1015.805006
1015.805006
1015.805006
1015.805006
1015.805006
1015.805006
745.756030
464.231968
215.000510
104.808807
35.407543
18.496513
20.933747
27.981997
45.225620
60.817599
84.739923
102.133751
119.868517
125.248432
125.625730
116.476417
99.092722
81.854463
60.127974
46.555996
32.880902
25.763512
20.946860
19.105673
18.879771
19.531846
19.640923
19.971728
19.977689
20.367503
20.684600
20.727515
21.008849
22.020936
21.632910
22.057891
22.526979
21.589994
21.474957
22.086501
22.081733
21.722913
21.889806
21.930933
21.098852
21.054745
21.307468
20.574927
20.840764
##ZVALUE=310
1.054406
1.180768
1.173615
1.255870
1.211762
1.117587
1.223683
1.177788
1.110435
1.076460
1.086593
1.097918
1.205802
1.145601
1.165867
1.374483
1.301765
1.292825
1.279712
1.298785
1.374483
1.263618
1.487732
1.492500
1.702905
1.565814
1.582503
1.640916
1.872778
1.892447
1.794696
2.078414
2.313852
2.528429
2.465844
3.014803
3.332496
10.996461
36.802888
127.578974
260.401964
555.530787
865.162611
1015.805006
1015.805006
1015.805006
1015.805006
1015.805006
1015.805006
964.329839
650.959015
328.028798
176.254511
61.194897
25.558472
15.601516
18.395782
27.523637
38.313866
57.082772
73.079467
96.214414
109.622478
118.677616
120.456815
112.294555
99.661946
79.771876
64.215660
44.940710
35.718679
27.064681
23.111701
20.908713
20.102859
20.470619
20.726919
20.847917
20.621419
20.711422
21.241903
21.393895
22.389889
22.204518
22.732615
22.769570
22.316575
22.623539
22.194982
22.395849
21.430850
21.339655
20.941496
20.918846
21.406412
21.295547
##ZVALUE=315
1.054406
1.190901
1.063943
0.876784
0.935793
0.986457
0.957847
1.096725
0.934601
1.072884
1.136661
1.116991
1.122952
1.155734
1.092553
1.212955
1.305938
1.302958
1.256466
1.229644
1.252890
1.290441
1.191497
1.364946
1.495481
1.422763
1.457930
1.618862
1.542568
1.463890
1.634955
1.849532
2.137423
2.231598
1.958609
2.201796
2.279878
2.453923
3.031492
5.523562
18.178821
79.142451
179.876685
420.411825
706.636906
1015.791893
1015.791893
1015.791893
1015.791893
1015.791893
1015.791893
1015.791893
827.084780
449.444652
246.204734
90.909600
37.091970
15.259981
14.259815
18.208623
24.673939
37.793517
51.222444
70.605874
86.642504
104.537606
113.496780
113.657713
108.671784
93.792677
79.455972
61.661601
48.595667
35.337806
28.496981
23.329854
21.559000
20.931959
20.927787
20.977855
21.743774
22.109747
22.388697
22.413731
22.949576
22.360682
22.845864
22.310615
22.912621
22.133589
22.042990
21.995902
21.693707
21.843910
21.120906
20.979643
##ZVALUE=320
0.985861
0.982881
1.014471
0.872612
0.916719
1.211762
0.986457
1.046658
1.002550
0.959635
0.954866
1.221895
1.069903
0.971556
1.228452
1.177788
1.096725
1.246929
1.165867
0.976920
1.027584
1.332760
1.204610
1.261830
1.479983
1.223683
1.351833
1.575947
1.360774
1.595616
1.488924
1.609921
1.827478
1.778603
1.920462
2.006888
2.154708
2.072453
2.242923
2.405643
2.656579
3.602505
8.728504
43.724775
114.696622
313.832760
537.630916
938.696861
1015.805602
1015.805602
1015.805602
1015.805602
1015.805602
1015.805602
986.277461
573.276877
330.206752
139.119625
62.094927
19.562840
13.118982
13.758540
16.460419
23.295879
32.332540
49.202442
64.174533
83.782673
96.488595
108.031631
109.944940
103.631616
94.032884
76.504946
61.097741
45.568943
35.763979
28.120875
24.196506
22.500753
21.806955
21.484494
22.399426
21.541715
21.877885
22.737980
22.248626
22.885799
22.247434
22.024512
21.792650
21.975636
22.307634
21.545887
21.638870
21.867752
##ZVALUE=325
1.021624
0.976920
1.036525
1.106858
0.955462
1.072884
1.014471
0.995994
0.972748
0.979900
0.938773
0.935793
0.998974
1.027584
1.061559
1.179576
1.058578
1.146793
1.145601
1.024604
1.089573
1.208782
1.306534
1.378655
1.198649
1.194477
1.447797
1.328588
1.344681
1.492500
1.283884
1.350641
1.508594
1.614690
1.387596
1.927614
1.739860
1.861453
1.983643
2.153516
2.329946
2.273917
2.653599
2.972484
4.796982
27.813911
76.997876
213.725567
394.649506
755.207539
1015.805006
1015.805006
1015.805006
1015.805006
1015.805006
1015.805006
1015.805006
685.398579
420.720577
190.775990
89.017749
25.985837
13.772845
11.926889
12.873411
16.647577
22.231936
33.775568
45.628548
65.046549
78.790784
95.136762
103.332996
105.747581
100.020766
86.095929
73.165894
56.959987
45.741796
34.424663
28.322935
24.379492
22.692680
21.831989
22.108555
22.065639
22.018552
22.057891
22.052526
22.405982
22.097826
21.734834
21.926761
20.683408
21.221638
21.292567
##ZVALUE=330
0.881553
0.871420
0.983477
0.773668
0.918508
1.036525
0.945926
0.859499
0.946522
0.875592
0.921488
0.856519
0.887513
1.009703
0.956655
1.007915
1.014471
1.025796
1.113415
0.941753
1.142621
1.081824
1.144409
1.006722
1.200438
1.107454
1.144409
1.093745
1.356602
1.253486
1.383424
1.336932
1.396537
1.327991
1.408458
1.428723
1.574755
1.628995
1.723766
1.828671
2.001524
1.979470
2.153516
2.253652
2.466440
2.752542
3.517866
12.573004
40.869713
138.815641
275.234580
581.078529
887.915492
1015.805602
1015.805602
1015.805602
1015.805602
1015.805602
1015.805602
853.276849
547.453761
253.977776
126.687884
44.724941
18.550754
12.039542
11.797547
13.239980
16.106963
23.670793
31.486750
44.808984
59.348941
77.955723
89.175701
99.212527
100.469589
93.115568
85.017681
68.335533
55.570602
42.313933
34.642816
29.285550
25.954843
23.122430
22.858977
22.021532
21.454692
21.653771
21.862984
21.313429
21.172762
21.103621
20.718575
21.005869
##ZVALUE=335
0.792742
0.835657
0.764728
0.910759
0.806451
0.827909
0.992417
0.935793
0.886917
0.970960
0.881553
1.082420
1.143813
1.075864
1.038909
0.916719
1.005530
0.993609
1.047850
1.071692
1.131892
1.025796
0.996590
0.996590
0.963807
1.193881
1.242757
1.106858
1.208782
1.096725
1.170635
1.035929
1.306534
1.349449
1.392961
1.349449
1.487732
1.440644
1.504421
1.620650
1.678467
1.765490
1.774430
1.968741
2.030730
2.168417
2.317429
2.640486
2.813935
6.169677
21.117926
87.082982
185.054541
426.369905
707.668662
1015.805006
1015.805006
1015.805006
1015.805006
1015.805006
1015.805006
987.527966
693.963766
362.240672
189.242959
63.720942
26.497841
13.171434
11.879802
12.911558
14.313459
17.652512
22.687912
32.463670
43.573976
60.223937
72.546601
85.992813
93.319416
94.080567
89.385509
77.874660
68.195462
54.996610
45.536757
35.087466
29.349923
24.704933
22.712946
21.136999
21.370649
20.999908
20.302534
20.303726
20.554662
20.675659
##ZVALUE=340
0.800490
0.779629
0.733733
0.905991
0.914931
0.881553
0.919700
1.066923
0.856519
0.892878
0.944734
0.777841
0.885725
0.943542
1.080632
0.849962
0.980496
0.803471
0.893474
1.024604
0.976920
0.905991
0.910759
1.052618
1.010895
0.966787
1.117587
1.141429
0.945926
1.193881
1.147985
1.074672
1.152754
1.326799
1.336932
1.351833
1.259446
1.369715
1.350641
1.516938
1.546741
1.615882
1.531839
1.694560
1.714826
1.880527
1.945496
2.047420
2.181530
2.405643
2.399683
3.641844
10.712743
52.265525
128.942728
328.403711
564.501882
966.279507
1015.810966
1015.810966
1015.810966
1015.810966
1015.810966
1015.810966
843.685865
459.628701
250.210762
93.281865
38.619637
15.060902
12.201667
12.767911
13.404489
15.095472
17.435551
23.741722
31.423569
43.418407
54.703951
70.782900
80.350637
88.406801
88.309646
84.294677
78.104734
64.296722
54.362416
43.012500
34.901500
28.134584
24.083853
21.825433
20.337701
19.953847
20.076632
19.730926
##ZVALUE=345
0.901818
0.776649
0.839829
0.999570
0.807643
0.871420
0.924468
0.875592
0.810623
0.910759
0.815988
0.767708
0.743866
0.810623
0.814795
0.903606
1.072884
0.820756
0.879765
1.035929
0.982881
0.966787
0.997782
0.989437
0.865459
0.894666
0.889897
1.017451
1.124740
1.131892
0.940561
1.042485
1.067519
1.285672
1.242757
1.206994
1.302958
1.264811
1.282692
1.230836
1.356602
1.536608
1.436472
1.362562
1.487732
1.484752
1.582503
1.830459
1.670718
2.024770
1.877546
2.263784
2.485514
2.891421
5.105734
28.458834
79.614520
216.984749
399.104953
753.734708
1015.805006
1015.805006
1015.805006
1015.805006
1015.805006
1015.805006
985.139608
604.260564
341.538787
135.874748
60.431957
20.793676
13.569593
12.582541
12.748837
13.463497
14.593601
17.061830
21.488667
30.182600
39.857626
54.322481
64.231753
75.403452
81.252456
84.034801
81.451535
72.964430
64.364672
52.603483
42.975545
32.630563
27.941465
22.813678
20.760894
19.491911
##ZVALUE=350
0.734925
0.773668
0.888705
0.843406
0.835657
0.930429
0.783801
0.793934
0.868440
0.878572
0.792742
0.843406
0.952482
0.818968
0.827909
0.837445
0.797510
0.974536
1.059771
0.834465
0.900626
0.766516
0.951886
0.951886
0.843406
0.881553
0.783801
1.005530
1.031756
1.104474
1.214743
1.140833
1.095533
1.108646
1.083612
1.195669
1.058578
1.327991
1.272559
1.166463
1.242757
1.249909
1.297593
1.344681
1.450777
1.360774
1.498461
1.588464
1.478791
1.649857
1.889467
1.953840
2.165437
2.148747
2.214909
2.518892
3.410578
14.259815
45.654774
146.156549
284.476876
590.597987
882.728696
1015.810966
1015.810966
1015.810966
1015.810966
1015.810966
1015.810966
688.271523
424.952507
195.368528
90.600848
27.200580
14.109612
11.878610
12.130737
12.374520
12.314916
14.149547
16.059875
21.093488
27.288795
37.656426
46.790838
58.502555
66.792965
74.758530
76.577663
75.332522
68.350434
57.871938
49.635768
39.301515
32.933950
25.897622
##ZVALUE=355
0.833869
0.799894
0.874996
0.772476
0.769496
0.768900
0.857711
0.819564
0.885725
0.744462
0.893474
0.936985
0.867844
0.858903
0.965595
0.830889
0.980496
0.800490
0.868440
0.776649
0.864863
0.927448
0.839829
0.931621
1.005530
0.849962
1.020432
1.062751
1.028776
1.027584
1.106858
1.025796
1.122952
1.200438
1.080632
1.209974
1.131892
1.196861
1.073480
1.335740
1.180768
1.351833
1.196861
1.326799
1.308918
1.264811
1.224875
1.483560
1.254678
1.496673
1.547933
1.748800
1.760721
1.765490
1.918674
2.006888
2.230406
2.579689
2.644658
7.276535
25.316477
98.774433
203.006864
435.630083
700.692534
1015.805006
1015.805006
1015.805006
1015.805006
1015.805006
1015.805006
836.538672
535.598993
238.370895
114.640594
35.914779
16.178489
11.540651
11.466742
11.296868
12.036562
12.497902
13.098717
15.529990
18.706918
25.306940
31.400919
40.919781
50.019622
60.871840
66.576600
70.136786
68.907738
63.183904
56.497455
46.603680
##ZVALUE=360
0.970960
0.920892
0.890493
0.758767
0.827909
0.822544
0.974536
0.680685
0.762939
0.626445
0.865459
0.751615
0.855923
0.791550
0.783801
0.792742
0.998974
0.868440
0.872612
0.949502
0.991821
0.966787
0.908971
1.014471
1.007915
0.997782
0.892878
0.876784
1.032948
0.898838
1.020432
1.102686
0.972748
0.956655
1.133680
1.043677
1.006722
1.046658
1.065731
1.172423
1.200438
1.252890
1.187921
1.282692
1.351833
1.222491
1.403689
1.417994
1.400709
1.586676
1.440644
1.501441
1.633763
1.587868
1.660585
1.795888
2.069473
2.118945
2.104640
2.573729
2.743602
4.184842
11.880994
51.730871
124.725699
314.452648
536.142588
913.366675
1015.794873
1015.794873
1015.794873
1015.794873
1015.794873
982.874632
676.590800
331.285000
172.341466
63.615441
25.381446
11.774898
10.589957
11.111498
11.128783
11.435747
11.587739
12.117624
13.636947
16.621947
20.333529
27.439594
34.392476
44.820905
51.919818
59.106946
62.809587
63.028932
##ZVALUE=365
0.796914
0.707507
0.683665
0.964999
0.791550
0.847578
0.831485
0.963807
0.952482
0.859499
0.969768
0.992417
0.858903
0.836849
0.732541
0.763535
0.924468
0.791550
0.989437
0.830889
0.906587
0.810623
0.916719
0.979900
0.853539
1.013875
1.001954
1.153946
1.083612
0.923872
1.008511
1.106858
1.035929
1.154542
0.990629
1.062751
1.130700
1.015663
1.085997
1.090765
1.153946
1.308918
1.138449
1.222491
1.257658
1.438856
1.259446
1.431704
1.195669
1.406670
1.462698
1.288652
1.424551
1.715422
1.761913
1.793504
1.891851
1.921654
1.960993
2.136827
2.164841
2.631545
2.654791
3.035665
5.304813
27.794838
77.933669
215.258598
395.269990
739.614964
1011.150479
1015.811563
1015.811563
1015.811563
1015.811563
1015.811563
824.508667
452.606678
246.278644
91.688633
37.518740
13.520718
10.608435
10.405779
10.560751
10.357499
10.588765
10.666847
11.155605
12.201667
14.243722
18.080473
22.485852
30.151606
37.360787
46.133995
##ZVALUE=370
0.840425
0.955462
0.811815
0.774860
0.732541
0.907779
0.769496
0.875592
0.795722
0.766516
0.840425
0.755787
0.883937
0.936985
0.823736
0.960827
0.961423
0.926852
0.844598
0.848770
0.818968
0.907779
0.695586
0.989437
0.921488
0.990629
0.922680
0.981688
1.033545
0.911951
0.832677
0.948906
0.951886
0.953674
1.005530
1.063943
1.018643
1.110435
1.173615
1.146793
1.186728
1.322627
1.248717
1.249909
1.200438
1.139641
1.238585
1.303554
1.319647
1.254678
1.208782
1.553893
1.366735
1.471639
1.434684
1.632571
1.465678
1.558661
1.959801
1.604557
1.930594
1.947880
2.175570
2.260804
2.296567
2.721548
3.440976
15.926957
53.889751
171.725750
320.282578
621.737838
929.942727
1015.805006
1015.805006
1015.805006
1015.805006
1015.805006
979.625583
558.306575
310.182571
120.744705
54.886937
19.297600
10.944605
9.700656
9.526610
9.323955
9.423494
9.411573
9.806752
10.186434
10.827780
12.793541
15.137792
20.154715
##ZVALUE=375
0.821948
0.900626
0.758767
0.771880
0.854731
0.812411
0.908971
0.781417
0.791550
0.884533
0.812411
0.732541
0.877976
0.755787
0.914931
0.811815
0.922680
0.840425
0.905991
0.919700
0.786781
1.025796
1.034737
0.968575
0.857711
0.916719
0.992417
0.885725
1.082420
0.788569
0.823736
0.983477
0.769496
1.092553
1.070499
1.169443
1.068711
1.015663
1.082420
1.131892
1.072884
1.076460
1.058578
1.045465
1.143813
1.066923
1.134872
1.110435
1.263618
1.250505
1.206994
1.310706
1.340508
1.355410
1.434684
1.322627
1.375675
1.361966
1.367927
1.492500
1.536608
1.753569
1.718998
1.872778
2.043843
2.236962
2.221465
2.470613
2.962947
7.878542
29.925704
116.446614
247.931480
552.985668
863.274932
1015.799642
1015.799642
1015.799642
1015.799642
1015.799642
1015.799642
744.571686
461.347699
207.819939
101.966858
32.527447
14.103651
8.637905
8.530617
8.432865
8.495450
8.627772
8.523464
8.819699
9.059906
9.734631
##ZVALUE=380
0.962615
0.776649
0.852942
0.817776
0.875592
0.789762
0.899434
0.782609
0.889897
0.851750
0.823736
0.946522
0.935793
0.865459
0.967979
0.679493
0.910759
0.865459
0.816584
0.902414
1.070499
1.010895
0.750422
0.869632
1.051426
0.944734
0.905991
0.972748
0.930429
0.941753
1.237988
1.125932
0.934601
1.048446
1.157522
0.938773
1.051426
1.111627
1.224875
1.151562
1.119971
1.227856
1.114607
1.216531
1.186728
1.197457
1.139641
1.081824
1.214743
1.233816
1.366735
1.318455
1.241565
1.312494
1.265407
1.084805
1.235604
1.393557
1.365542
1.400709
1.395941
1.455545
1.463890
1.809597
1.820922
1.852512
2.036691
2.064705
2.326965
2.689958
3.012419
4.790425
14.828444
73.937774
181.388855
439.842939
716.260672
1015.879512
1015.879512
1015.879512
1015.879512
1015.879512
1015.880108
951.920748
641.039610
312.792659
157.857537
54.065585
21.936893
9.194613
8.029938
8.070469
8.084774
8.237958
8.162856
8.042455
##ZVALUE=385
0.665784
0.668764
0.789762
0.909567
0.805855
0.745654
1.035929
0.626445
0.758767
0.659823
0.652671
0.740886
0.576973
0.789762
0.824928
0.707507
0.699759
0.726581
0.827909
0.645518
0.641942
0.734925
0.697970
0.680685
0.721812
0.922680
0.906587
0.900626
0.645518
0.803471
0.907779
0.881553
0.934601
0.938773
0.814795
0.780821
0.841618
0.903606
0.772476
0.935793
0.744462
0.945926
0.880957
0.803471
0.893474
0.970960
0.909567
1.022816
0.930429
0.915527
0.861883
0.974536
0.867844
1.109838
1.091957
1.058578
1.202822
1.016855
1.176596
1.184940
1.168847
1.279712
1.296997
1.404881
1.372695
1.508594
1.501441
1.675487
1.785755
2.094507
2.230406
2.458692
2.747774
3.120899
7.338524
38.958788
98.910928
254.823565
460.519791
848.348737
1015.766859
1015.766859
1015.766859
1015.766859
1015.766859
1015.766859
785.022974
428.541899
242.436528
97.086430
38.544536
11.166930
7.441640
7.169843
7.062554
7.154942
##ZVALUE=390
0.729561
0.608563
0.723600
0.784993
0.869632
0.715852
0.768900
0.837445
0.774860
0.749826
0.788569
0.869632
0.814795
0.718832
0.766516
0.679493
0.719428
0.730753
0.665784
0.804663
0.727773
0.698566
0.746846
0.858903
0.840425
0.900626
0.902414
0.898838
0.768900
0.772476
0.782609
0.925660
0.849962
0.744462
0.666976
0.750422
0.856519
0.906587
1.053810
0.745654
0.913739
0.942945
0.915527
0.664592
0.825524
0.945926
1.005530
1.025796
0.939965
0.857711
1.018643
1.039505
0.917912
0.910759
0.957847
0.937581
0.977516
1.136661
1.152754
1.270771
1.281500
1.157522
1.252890
1.279712
1.194477
1.229644
1.391768
1.617670
1.549721
1.913905
2.009869
2.042651
2.182722
2.120733
2.316833
2.551675
3.818870
20.321608
61.112642
185.949802
351.058841
672.788620
953.903794
1015.805006
1015.805006
1015.805006
1015.805006
1015.805006
956.559777
583.685637
340.262651
137.836933
63.894987
19.011497
8.976460
6.659627
##ZVALUE=395
0.791550
0.657439
0.679493
0.686646
0.648499
0.702739
0.603795
0.666976
0.662804
0.609756
0.730753
0.667572
0.643730
0.661612
0.736713
0.755787
0.753999
0.624657
0.801682
0.838637
0.893474
0.661612
0.761747
0.805855
0.829697
0.982881
0.558496
0.773668
0.881553
0.787973
0.713468
0.803471
0.897646
0.817776
0.847578
0.863671
0.921488
0.902414
0.835657
0.929832
0.863671
0.807643
0.841618
0.870824
0.977516
0.828505
0.958443
1.100898
0.869632
0.932813
0.989437
0.977516
0.999570
1.070499
1.070499
0.977516
1.085997
1.167655
1.086593
1.156926
1.015663
1.277924
1.071692
1.072884
1.195669
1.276731
1.439452
1.577735
1.562834
1.592636
1.728535
1.851916
1.883507
2.021790
1.987815
2.145767
2.050996
2.206564
2.721548
11.479855
40.955544
140.192509
265.230536
514.540672
780.478716
1015.805602
1015.805602
1015.805602
1015.805602
1015.805602
1015.805602
725.178719
456.214547
199.152827
94.169974
29.806495
##ZVALUE=400
0.543594
0.661612
0.830889
0.636578
0.710487
0.542998
0.648499
0.584722
0.648499
0.687838
0.661612
0.852942
0.785589
0.661612
0.610948
0.713468
0.673532
0.864863
0.810623
0.682473
0.719428
0.816584
0.680685
0.660419
0.741482
0.689626
0.797510
0.854731
0.668764
0.633597
0.742674
0.757575
0.774860
0.722408
0.909567
0.798702
0.839829
0.733733
0.890493
0.848770
0.857711
0.822544
0.788569
0.884533
0.984669
0.899434
0.998974
0.985861
0.793934
0.841618
0.862479
0.882745
1.044869
0.890493
0.980496
0.957847
1.014471
1.121759
1.107454
1.094937
0.947714
1.074672
0.996590
1.148582
1.174808
1.446605
1.241565
1.387596
1.630783
1.567602
1.728535
1.816750
1.785755
1.921654
1.852512
1.830459
1.745820
1.891851
1.972914
2.482533
2.552867
10.469556
23.347735
82.127452
175.373554
387.574434
614.160895
1015.805006
1015.805006
1015.805006
1015.805006
1015.805006
1015.805006
909.049511
543.558598
330.917835
##END
