##TITLE=
##FORMAT=SPECTACLE-ASCII V-1.2
##DATA TYPE=ULTRAVIOLET SPECTRUM
##SECOND TYPE=ULTRAVIOLET SPECTRUM
##DATE=09/27/17
##TIME=11:30:45
##SPECTROMETER/DATA SYSTEM=SPECTACLE
##XUNITS=NM EM
##YUNITS=ENERGY
##YFACTOR=1
##FIRSTX=220
##LASTX=410
##NPOINTS=96
##3DDATA=Equidistant
##ZUNITS=NM EX
##FIRSTZ=210
##LASTZ=400
##ZPOINTS=39
##XYDATA=(Y..Y)
##ZVALUE=210
4.028678
4.544854
4.545450
4.539490
4.762411
4.288554
4.962683
4.434586
3.905892
4.028678
4.145503
3.977418
3.603697
3.760457
5.044937
3.673434
3.905892
4.394650
4.690886
4.484653
5.138516
5.058646
5.067587
5.320907
5.504489
6.103516
6.194711
6.172657
7.065535
7.603765
7.193685
6.660819
7.464886
7.972717
7.888675
8.617640
8.602738
8.448958
8.346438
8.130670
8.131862
7.512569
7.796884
8.232594
8.592606
8.598566
8.831620
9.503961
9.356737
8.601546
9.014606
9.779930
9.341836
9.466410
9.701848
9.619594
10.242462
10.718703
9.340644
11.242628
10.047555
9.400845
10.238886
11.319518
10.075569
11.955500
11.986494
13.319850
14.633536
17.291903
18.763542
20.800829
25.473833
26.987791
29.188991
31.960607
33.388734
34.925938
32.584667
32.650828
30.142665
27.829409
24.411678
21.002889
17.348528
16.082525
12.862682
12.154579
9.904504
10.086894
9.823442
10.054708
10.007620
10.480881
10.848641
9.909868
##ZVALUE=215
14.269948
14.313459
14.161468
11.383891
10.119677
8.301735
7.081628
8.185506
8.653998
7.273555
7.285476
7.853508
5.957484
5.934834
5.568862
4.509687
4.616976
4.546642
4.395843
5.421638
5.386472
6.629825
6.179810
6.046891
6.376505
6.351471
6.949902
6.881952
6.839633
7.766485
7.519722
7.619858
7.009506
7.390976
8.006692
8.774996
7.891655
8.553863
8.354783
8.803606
8.344650
9.503961
8.693933
10.379553
9.320974
9.972453
10.002851
9.732842
9.518862
11.455417
11.847615
10.312796
9.606481
10.361671
11.239648
11.183619
11.293888
11.695623
11.442900
11.301637
12.019873
12.151599
10.578632
13.065934
12.883544
12.984872
13.266802
14.345646
15.686750
16.985536
18.827915
24.266839
25.655627
29.513836
31.004548
33.527613
32.547712
33.093691
32.757521
30.789971
26.996732
24.613738
23.886561
20.363927
17.846823
15.450716
13.186932
12.796521
11.645555
11.173487
10.896921
9.706616
10.643601
9.836555
10.486841
11.139512
##ZVALUE=220
40.881634
38.621426
44.459701
42.985678
37.701726
30.208826
25.717616
19.065738
15.780926
15.703440
17.086864
14.994740
15.223622
14.067888
11.890531
10.264516
8.327961
6.548762
6.054640
5.321503
6.562471
5.575418
6.275773
6.618500
6.803870
5.947948
6.488562
7.629991
7.451773
8.642673
7.731915
8.361936
8.373857
8.670688
8.144975
9.129643
8.111596
7.814765
8.989573
8.753538
9.153485
8.652806
8.749962
8.743405
10.940433
8.834600
9.781718
10.660887
9.565949
9.389520
10.534525
11.163950
10.642409
12.580752
11.292696
10.706782
10.731816
11.413693
11.403561
11.064410
12.615919
13.531446
12.424588
12.816787
12.861490
12.144446
13.639927
14.176965
14.145970
16.476512
19.052625
22.878647
26.003718
28.540492
29.279590
31.479001
30.466914
29.923916
28.468966
26.361942
24.948716
22.570491
20.858645
18.511415
16.394854
15.112758
14.253855
11.901855
12.365580
10.835528
11.249781
11.277795
10.693669
10.302663
10.968447
10.569692
##ZVALUE=225
64.643621
71.296692
89.426637
106.553435
115.557909
109.261870
103.962421
81.118941
64.185858
47.312975
31.633973
29.770732
29.901862
28.002858
28.676987
25.971532
25.367737
19.650459
16.357899
12.276769
9.104609
7.566810
6.794930
6.470680
7.927418
8.118749
6.838441
7.466674
7.810593
8.526444
8.295774
8.229613
8.606911
9.083748
8.930564
9.272695
8.390546
10.277629
9.126663
8.760691
9.852648
10.467768
10.748506
11.544824
10.445714
10.860562
11.156797
10.641813
10.337830
11.608601
11.566877
11.641979
12.963414
12.622476
12.963414
14.103651
14.215708
14.908910
14.786720
15.374422
15.095472
16.214848
15.890598
17.134547
15.719533
16.855597
16.506910
17.811656
19.502640
20.542741
22.390485
25.329590
25.643706
28.611422
28.865933
31.724572
31.550527
29.046535
30.453801
25.726557
24.328828
27.348995
24.350882
20.215511
19.590855
16.245842
15.190840
14.354587
14.603734
14.153719
13.513565
12.748837
13.070703
13.842583
11.530519
12.488961
##ZVALUE=230
59.543848
62.044859
108.608603
154.059529
208.579898
244.073868
272.648931
269.852877
244.854689
204.911828
147.344470
109.774470
82.010627
57.033896
53.510666
52.929521
54.056644
52.154660
49.800873
36.296844
27.895570
22.713542
13.092756
10.968447
8.946657
8.513927
7.765889
8.225441
8.883476
9.577870
9.572506
9.219646
9.483695
9.829998
10.324717
11.019707
10.076761
10.849833
11.499524
12.014508
10.585785
11.411905
11.254549
11.234879
11.509657
11.254549
12.327433
12.155771
11.845827
12.165904
14.095902
12.915730
14.023781
13.708472
15.506744
16.603470
16.128421
17.310977
16.939640
20.022988
19.122958
19.068718
18.823743
19.294620
20.078421
20.859838
21.265745
21.702647
22.231936
26.987791
26.270747
28.855801
31.066537
32.342672
34.750700
32.626987
34.260750
33.903718
32.174587
29.628873
27.805567
23.758411
25.183558
21.757483
22.036433
18.550754
19.286871
16.991496
16.919971
15.639663
14.773607
15.597939
15.756488
15.026927
14.724731
14.515519
##ZVALUE=235
16.866922
20.689964
43.532848
104.368925
164.219737
268.763900
358.392000
460.150838
502.756834
519.487858
472.201705
400.749445
280.279517
208.796859
142.034888
105.477571
82.670450
80.285668
87.163448
84.179640
83.264709
65.621734
54.417849
38.268566
26.821494
18.459558
14.117956
11.128783
10.098815
10.680556
9.688735
10.638833
9.725690
10.849833
10.828972
10.196567
10.853410
10.281801
10.391474
11.074543
11.167526
11.377931
10.967851
11.855960
12.459755
12.383461
13.145804
13.331771
13.174415
13.789535
12.071729
14.798641
15.868545
16.926527
16.354918
15.773773
16.960502
18.968582
21.220446
20.044446
21.898746
22.951961
22.648573
23.782849
24.194717
23.808479
24.093986
26.216507
26.663542
27.045608
29.183626
32.909513
31.892657
38.120747
35.600662
36.135912
33.980608
36.183000
30.779839
29.563904
29.111505
26.727915
26.518703
24.625659
23.477674
20.305514
21.842718
19.747615
19.358993
19.421577
20.427704
19.738674
18.837452
17.860532
17.771721
16.742945
##ZVALUE=240
2.813935
3.652573
7.060766
21.127462
46.698451
112.638474
196.757913
345.639586
485.825539
620.507002
770.918727
797.950029
734.548569
618.927479
449.393988
307.303667
180.706978
129.675865
106.375813
103.056431
112.183690
118.269920
112.477541
99.256635
87.279677
61.764717
47.945976
32.052994
24.455786
15.343428
12.316704
11.105537
10.485649
10.202527
11.408925
10.656714
10.915995
10.365844
10.223985
10.476708
10.990500
10.521412
11.126995
10.940433
11.091828
11.443496
11.782646
10.997653
12.990832
13.549924
14.792681
15.127659
15.784502
16.321540
15.866756
18.602610
18.244982
20.191669
20.767450
22.850633
22.145510
25.299788
24.589896
23.075938
24.114847
25.970936
27.187467
28.939843
27.853847
29.257536
30.643940
32.389760
32.340884
34.138560
34.134984
36.514997
36.597848
34.295917
33.003688
33.029914
29.076934
27.914643
26.807785
25.018454
25.590658
23.490787
23.199916
22.919774
22.064447
21.636486
22.551417
19.565821
19.935966
18.629432
18.978715
19.972920
##ZVALUE=245
3.123879
3.014803
3.305674
3.519654
6.320477
12.942553
42.953491
89.370608
214.145780
333.500504
543.680787
697.981715
818.345547
872.746706
855.646729
729.014874
594.721437
404.957533
274.682641
161.732435
119.343996
105.747581
116.422772
123.726726
135.010481
124.002695
111.418962
95.645785
68.743825
54.947734
35.727620
25.053620
17.803907
12.994409
10.608435
10.098815
10.855794
9.460449
10.266900
10.153651
10.006428
9.807944
10.575652
10.736585
11.145473
10.830760
11.241436
11.299849
12.184978
11.934638
11.818409
12.355447
13.461709
14.146566
13.614893
14.817715
16.399622
17.374754
17.620921
19.224882
19.047856
20.413995
20.351410
20.595789
20.888448
21.602511
21.549463
21.532774
23.516417
25.424957
25.333762
27.442575
28.745532
30.165911
31.278729
28.678775
30.387640
31.370521
29.169917
26.142597
25.861859
24.893880
23.705959
23.851991
22.224784
21.190643
22.646785
19.017458
19.392967
20.068884
18.260479
17.594695
18.732548
17.014742
17.278790
17.716885
##ZVALUE=250
2.337694
2.949834
2.606511
2.782941
2.780557
3.143549
4.159808
17.373562
44.271946
89.226961
209.481716
343.459845
557.423830
722.100735
904.785991
987.634659
999.428630
913.766026
799.297690
557.262897
378.399491
207.938552
137.963891
98.904967
106.157660
123.885870
136.396885
139.312744
134.412646
117.712617
102.484822
74.829459
56.259632
36.639571
25.119781
14.876723
11.844635
9.626746
9.670854
8.984804
9.158850
8.978844
8.916855
8.907914
9.739995
9.965897
9.364486
10.507703
10.494590
9.690523
10.586977
11.682510
11.584759
12.273788
12.386441
12.821555
13.310909
14.342666
15.157461
15.252829
15.887618
16.615987
17.516613
18.363595
17.635822
17.622709
17.247796
19.148588
18.825531
19.594431
22.608638
23.562908
25.568604
24.802685
28.027892
28.119683
25.540590
27.122498
25.768876
24.424791
23.519993
21.096468
22.601485
20.750761
19.812584
17.771721
19.094944
16.713738
18.358827
18.009543
17.896891
16.931891
17.086864
17.001629
17.308593
16.542673
##ZVALUE=255
2.047420
2.328753
2.174973
2.121925
2.626777
2.297759
2.483726
2.863407
3.386736
9.030700
48.151612
107.417703
208.340883
385.685563
561.019778
808.587670
981.118679
1015.676856
1015.676856
1015.676856
925.372839
730.366707
459.069610
283.350945
150.081515
104.267597
92.471838
102.674961
126.502514
141.385794
143.142939
141.884685
128.969550
105.143785
83.088875
55.998564
38.035512
23.493767
16.313791
11.766553
9.660721
9.158850
8.697510
8.604527
8.587837
9.206533
9.343624
9.346604
10.078549
9.643435
10.419488
10.271668
11.349916
10.921955
11.147857
12.371540
12.443662
13.043880
12.702942
13.238788
13.828874
13.857484
13.574958
13.934970
14.494658
15.071630
15.250444
14.905930
15.870929
17.133951
17.317533
17.864704
19.304752
19.834638
20.814538
22.053719
20.792484
20.539761
20.163655
18.882751
18.663406
17.769933
16.497970
15.737414
15.444756
14.778972
15.476942
14.408827
15.258789
14.340878
13.541579
14.257431
14.600754
13.520718
13.664961
14.561415
##ZVALUE=260
2.269745
1.949668
2.151728
2.164841
2.311468
2.352595
2.283454
2.491474
2.712607
2.616644
2.933741
4.262924
12.499690
53.828955
117.594004
273.563862
442.761779
737.411976
983.504653
1015.805006
1015.805006
1015.805006
1015.805006
1015.805006
728.103518
486.589670
269.458890
158.712864
93.621612
83.783865
101.744533
129.224658
143.907666
154.257417
147.549510
130.889416
110.808611
81.032515
61.872602
37.644506
25.789738
14.958978
11.305809
9.726882
8.719563
9.017587
8.687973
8.943677
9.541512
9.404421
9.912848
10.065436
10.422468
10.602474
10.874867
11.210442
11.029840
11.081696
11.289716
11.744499
13.154745
12.366772
12.404919
12.595654
13.598800
13.237596
13.724566
14.131665
14.593601
15.078783
16.306639
17.544627
17.394423
18.735528
19.015670
18.663406
18.730760
17.401576
17.814636
17.142892
16.006827
15.373826
15.402436
14.694929
13.057590
14.030933
14.009476
13.413429
13.467669
13.306737
12.774467
13.396740
12.979507
12.987852
12.396574
12.996793
##ZVALUE=265
2.028942
2.072453
2.141595
2.266765
1.962781
1.992583
2.186894
2.129674
2.399683
2.458692
2.575517
2.896786
2.760887
3.514886
11.377931
53.390861
119.112730
266.514421
444.517732
786.885619
1015.805006
1015.805006
1015.805006
1015.805006
1015.805006
1015.805006
1015.805006
755.788684
401.784778
238.024592
144.942999
86.483955
84.787607
111.925602
132.589936
152.241588
155.745745
143.926740
132.854581
107.531548
86.524487
56.441426
38.910508
23.131967
16.060472
11.086464
9.410977
8.750558
8.861423
8.849502
9.093881
9.971857
10.129809
10.362864
10.670424
10.863543
11.174679
11.371970
11.464953
12.440681
12.885928
12.147427
12.978911
12.332797
13.380647
12.527704
13.675690
13.991594
13.944507
14.865994
15.218854
16.104579
16.031861
17.843843
17.813444
17.938614
16.781688
16.705990
16.441941
15.276670
14.284849
14.466643
13.665557
12.976527
12.798905
12.686849
12.742877
12.874603
12.982488
12.276769
12.120605
12.336969
12.091994
12.476444
11.892915
12.840629
##ZVALUE=270
1.888871
2.095699
1.897812
1.881719
1.936555
2.020597
2.095699
1.950860
2.179742
2.365708
2.350807
2.475977
2.422929
2.569556
2.950430
2.700686
5.170703
19.327402
19.245744
189.729929
356.422067
668.705702
948.615670
1015.805006
1015.805006
1015.805006
1015.805006
1015.805006
1015.805006
996.018648
730.624795
380.513668
207.852721
91.861486
69.280863
86.306930
109.583735
136.210918
150.982738
156.774521
151.374936
133.299828
111.202598
82.432628
60.438514
36.392808
24.903417
15.907884
11.744499
10.352731
10.213852
9.813905
9.782910
10.495782
10.286570
10.656714
11.662841
11.645555
11.667609
12.177825
11.810660
12.394786
12.504458
12.554526
12.783408
12.504458
11.981726
13.405681
13.647676
14.901757
14.523864
15.553832
15.621781
16.396642
16.526580
16.633868
15.888810
15.684962
15.794635
14.007688
13.912916
13.082623
12.754798
12.784600
12.446642
11.779666
12.020469
12.001991
11.821985
11.684895
11.907816
11.318922
11.314750
10.958910
10.425448
10.758638
##ZVALUE=275
1.534820
1.762509
1.793504
1.556873
1.696944
1.658797
1.764894
1.792908
1.585484
1.768470
1.821518
2.136827
2.012849
2.264977
2.453923
2.492666
2.531409
3.003478
2.997518
6.867647
27.020574
79.996586
232.557654
425.893664
775.617957
1011.145711
1015.805006
1015.805006
1015.805006
1015.805006
1015.805006
986.562967
716.812611
393.905640
233.102441
108.539462
65.769553
62.415600
81.242919
108.540654
129.312873
146.283507
153.940916
145.780444
133.186579
106.332898
84.962845
58.162808
41.443706
24.977922
17.761588
12.219548
10.803938
9.848475
9.821653
10.335445
10.554790
10.980964
11.139512
11.868477
12.103915
12.017488
12.652874
12.678504
12.383461
12.340546
12.620687
13.023615
12.823939
13.572574
13.530850
14.500618
14.624596
15.277863
15.247464
15.034676
14.463663
14.704466
13.586879
13.060570
12.984872
12.230873
12.052655
12.003779
11.990666
11.101961
11.433959
11.599660
10.669827
10.868907
10.076761
10.549426
10.481477
10.797977
9.994507
10.461807
##ZVALUE=280
1.436472
1.304746
1.332760
1.430511
1.651645
1.715422
1.591444
1.817942
1.816750
1.576543
1.738667
1.788735
1.829863
1.973510
2.020597
2.051592
2.043843
2.205968
2.130866
2.318621
2.712607
3.626943
18.782616
53.345561
126.420856
304.661989
504.616499
851.797462
1015.805006
1015.805006
1015.805006
1015.805006
1015.805006
1009.640694
783.014894
447.719693
261.643529
112.476945
62.228441
44.367909
55.390596
81.406832
104.697943
129.465461
143.364668
148.734450
144.390464
127.156973
108.019710
81.332922
59.956908
39.067864
27.123690
17.122626
13.642907
11.296868
11.137724
10.812879
11.216998
11.466742
11.870861
12.113452
12.660623
12.289882
12.467504
13.134480
12.936592
13.103485
13.284683
13.586879
13.282895
14.074445
14.417768
14.128685
15.027523
14.315844
14.260411
13.473630
13.125539
13.079643
12.583733
12.190938
11.609793
10.969639
11.233687
11.095405
11.180639
10.865927
10.320544
10.283589
10.552406
9.831786
9.894967
9.894967
10.301471
9.940863
##ZVALUE=285
1.378655
1.494884
1.464486
1.617670
1.625419
1.538992
1.610518
1.521707
1.590848
1.538992
1.650453
1.630783
1.796484
1.801848
1.632571
2.199411
1.942515
1.919866
1.944900
2.078414
2.151728
2.421737
2.429485
2.859831
8.296967
30.302405
100.462437
208.226442
445.829630
678.313971
945.814848
1015.805006
1015.805006
1015.805006
1015.805006
1015.805006
976.320505
604.881048
376.082659
176.706910
90.845823
40.427446
37.140846
53.581595
75.008869
104.514956
123.834014
140.867829
148.727894
140.909553
131.766796
108.542442
87.916851
60.847998
44.306517
27.574897
20.325780
15.361905
13.165474
12.720823
12.355447
12.928843
12.547970
12.886524
13.194680
12.552738
14.059544
13.309717
13.867617
13.120770
14.168620
14.589429
14.543533
14.179945
13.990998
13.489723
14.120936
12.652874
13.184547
12.891889
12.536645
11.897683
11.886954
11.324883
11.026859
10.851622
10.964870
10.548830
10.574460
10.275841
10.239482
10.272861
9.903908
9.946823
10.062456
9.627938
##ZVALUE=290
1.506805
1.259446
1.410842
1.386404
1.381636
1.490712
1.405478
1.428723
1.386404
1.423955
1.636744
1.713634
1.628995
1.783967
1.646876
1.855493
1.631975
1.863837
1.935959
1.856685
1.923442
2.186894
2.496839
2.487898
2.833605
3.034472
4.083514
12.354851
61.547756
160.692930
336.200595
704.429746
1003.654003
1015.805602
1015.805602
1015.805602
1015.805602
1015.805602
1015.805602
796.124935
517.929792
256.505609
130.390525
49.357414
30.751824
36.623478
50.061941
73.792934
93.363523
119.785666
134.691000
144.727826
141.966939
127.709508
109.256506
82.875490
63.979626
42.198896
31.161904
21.371841
16.972423
14.321804
13.917685
13.466477
13.711452
13.489723
13.154745
13.584495
13.951659
14.370680
13.727546
14.406443
14.835596
13.874769
14.205575
13.907552
13.794899
13.221502
12.504458
12.586713
11.892915
11.453629
11.608601
11.308789
11.555552
10.998845
10.710955
10.917783
10.219812
10.187626
10.186434
10.078549
9.941459
9.900928
10.209680
9.593964
##ZVALUE=295
1.322627
1.371503
1.350641
1.242757
1.268983
1.346469
1.562834
1.451969
1.624823
1.610518
1.461506
1.602769
1.665950
1.715422
1.558661
1.701713
1.563430
1.656413
1.703501
1.986623
1.872778
2.085567
2.185702
2.479553
2.448559
2.536774
2.752542
3.076792
3.448725
5.824566
21.490455
100.765824
254.419446
657.034516
1008.458734
1015.805006
1015.805006
1015.805006
1015.805006
1015.805006
1015.805006
985.266566
686.924458
359.347463
191.522837
68.486929
33.561587
25.061965
31.607747
49.515963
67.101717
92.999935
111.731887
131.274462
138.971806
135.605931
125.268698
103.327632
84.960461
60.376525
45.690536
30.913949
23.591518
17.305613
15.100837
13.556480
13.546944
14.004707
13.782978
13.690591
14.406443
14.232993
14.324784
14.085770
13.733506
13.324618
13.172626
13.474822
12.677908
12.030602
11.717677
11.102557
11.186600
10.802746
10.820627
10.885596
10.666847
10.333657
9.930730
10.225773
10.107756
9.969473
10.075569
9.768605
9.498596
9.622574
##ZVALUE=300
1.323819
1.358986
1.322627
1.389980
1.211762
1.479983
1.422763
1.427531
1.400709
1.471639
1.537800
1.358986
1.286864
1.629591
1.543760
1.566410
1.667738
1.788735
1.640916
1.857877
1.866817
1.801848
1.900792
2.119541
1.941919
2.086759
2.158880
2.408624
2.679825
2.837777
3.236532
3.734827
12.454987
45.954585
162.370801
334.327817
749.109983
1015.805602
1015.805602
1015.805602
1015.805602
1015.805602
1015.805602
1015.805602
937.381983
590.278506
285.784602
150.163770
53.108931
24.774671
22.425652
29.361844
45.929551
62.156916
87.562799
106.012821
125.969648
133.638978
133.707523
124.330521
104.316473
87.309480
63.068867
47.472715
31.925440
22.977591
17.458797
15.115738
14.014840
13.685822
13.565421
13.438463
13.608932
13.695955
13.341904
13.096929
12.661815
12.254715
11.956692
11.562705
11.110902
10.888577
11.332631
10.453463
11.234879
10.173917
9.883642
9.945631
9.724498
9.892583
9.959936
9.481907
9.568930
9.323955
9.343624
9.538531
##ZVALUE=305
1.258850
1.205802
1.434684
1.332760
1.299977
1.356602
1.198649
1.455545
1.017451
1.138449
1.346469
1.354814
1.505613
1.472831
1.488924
1.419783
1.608729
1.521707
1.484752
1.562834
1.632571
1.530647
1.768470
1.907945
1.783967
1.786947
1.741648
2.023578
2.254844
2.311468
2.600551
2.661943
3.298521
3.200769
7.105470
24.186969
103.807449
240.339041
552.946925
871.706605
1015.805006
1015.805006
1015.805006
1015.805006
1015.805006
1015.805006
1015.805006
744.850636
386.402011
210.324526
79.623461
34.739971
17.322898
20.401478
29.434562
41.533709
63.434839
80.352426
104.234815
116.374493
126.351714
126.662850
114.631653
101.349950
78.763962
61.960816
42.381883
31.672716
20.507574
16.411543
13.741851
12.855530
11.934638
12.165904
12.190938
11.798739
11.351705
11.080503
10.561943
10.669827
10.362864
10.564923
10.344982
10.175705
10.042787
9.978414
9.494424
9.606481
9.094477
9.091496
9.190440
9.040833
9.071827
8.692741
9.121895
8.745790
##ZVALUE=310
1.198649
0.982881
1.131892
1.191497
1.235604
1.009703
1.261830
1.335740
1.228452
1.410842
1.305938
1.389980
1.373887
1.431704
1.236796
1.285672
1.349449
1.424551
1.238585
1.192689
1.432896
1.480579
1.394749
1.563430
1.642704
1.636744
1.841784
1.784563
1.882911
1.938939
2.120733
2.301931
2.254844
2.732873
2.585649
3.070831
3.344417
12.975931
43.745637
152.812004
312.986374
665.751696
990.234613
1015.811563
1015.811563
1015.811563
1015.811563
1015.811563
1015.811563
827.840567
544.996858
265.644789
139.718652
50.574541
22.690892
15.400648
18.027425
26.738644
37.548542
55.790544
72.194934
93.000531
106.977820
116.708875
118.587613
110.056996
97.258687
76.804757
61.024427
41.298866
30.636787
21.030903
16.333461
12.892485
11.615753
10.415912
10.410547
10.546446
10.003448
9.472966
9.395480
9.470582
9.311438
9.245872
9.160638
9.024739
9.059906
8.767843
8.740425
8.852482
8.622408
8.572936
8.266568
8.228421
8.475780
8.145571
##ZVALUE=315
1.096725
1.089573
1.066923
1.202822
1.201630
1.033545
1.006722
1.023412
0.942945
0.929832
0.979900
1.027584
1.294613
1.141429
0.924468
1.128912
1.283884
1.322627
1.277924
1.322627
1.246929
1.224875
1.450777
1.294613
1.511574
1.301765
1.565814
1.592636
1.604557
1.697540
1.665950
1.792908
1.994967
2.021790
2.159476
2.235770
2.327561
2.638698
2.772808
5.983710
21.999478
89.394450
199.533701
461.328030
763.069987
1015.766859
1015.766859
1015.766859
1015.766859
1015.766859
1015.766859
992.103815
712.669492
369.167924
195.500851
71.465969
30.188560
14.724731
14.091730
18.049479
23.878813
35.999417
49.437881
67.720413
84.737539
101.667643
109.704733
111.357570
105.288625
89.087486
74.400902
55.172443
41.369796
26.487708
19.217730
13.503432
11.209846
9.719729
9.201765
8.966923
8.382797
8.342862
8.121729
8.586645
8.439422
8.264780
8.268952
7.938743
8.350611
8.214712
7.917881
7.877946
7.811785
7.615685
8.119941
7.858872
##ZVALUE=320
1.005530
1.000762
0.959635
1.128912
1.063943
1.051426
1.131892
0.993609
1.244545
1.018643
0.952482
1.110435
1.178980
1.085997
1.197457
1.025796
1.144409
1.177788
1.259446
1.392961
1.146793
1.267791
1.182556
1.359582
1.230836
1.421571
1.367927
1.535416
1.680851
1.582503
1.475811
1.686811
1.464486
1.761913
1.936555
2.016425
2.054572
2.254844
2.279878
2.526641
2.736449
3.543496
9.107590
49.930811
127.596855
331.218839
558.990836
952.327847
1015.805006
1015.805006
1015.805006
1015.805006
1015.805006
1015.805006
943.937898
512.034893
287.243724
117.089748
49.913526
17.456412
12.234449
12.632608
14.815927
21.170974
29.796958
45.658946
59.457421
78.736544
92.554688
102.645755
104.163885
98.607540
86.850524
67.334771
52.773952
35.464764
25.478601
17.224550
12.381673
9.654760
8.338690
7.763505
7.879734
7.713437
7.668734
7.677674
7.251501
7.351637
7.383823
7.193685
7.570982
7.111430
7.097721
7.195473
7.390976
7.129908
##ZVALUE=325
0.967979
1.018643
1.111627
1.016855
0.979900
1.147985
1.022816
0.918508
1.167655
1.063943
1.014471
0.780821
1.059771
0.961423
1.070499
1.123548
0.958443
1.111627
1.153946
0.976920
1.139641
1.126528
1.435876
1.094937
1.288652
1.353621
1.205802
1.364946
1.229644
1.339912
1.462698
1.336932
1.447797
1.565814
1.750588
1.610518
1.594424
1.613498
1.907945
2.025962
2.271533
2.325773
2.555847
2.967715
4.816651
30.121803
85.326433
232.040882
415.432453
763.783455
1015.805006
1015.805006
1015.805006
1015.805006
1015.805006
1015.805006
1005.102992
641.470551
393.181443
174.516439
80.376863
22.767782
12.092590
9.797812
10.458827
13.624430
18.324852
29.703975
40.752888
58.888793
73.629618
88.849664
95.308423
96.702576
89.445710
75.813532
63.483715
45.587420
34.465790
21.763444
15.573502
11.023879
9.127855
7.706881
7.283688
7.221699
7.089972
7.083416
7.230639
7.111430
6.864667
6.851554
6.611943
6.950498
6.665587
6.867647
##ZVALUE=330
0.842810
0.778437
0.821948
0.870824
0.868440
0.808835
0.893474
0.809431
0.774860
0.756979
0.819564
0.812411
0.713468
1.018643
0.908971
0.885725
0.899434
0.979900
0.972748
1.101494
1.044869
0.930429
1.107454
0.944734
1.026988
1.028776
0.966787
1.132488
1.158714
1.232624
1.152754
1.331568
1.299977
1.339912
1.235604
1.348853
1.644492
1.459718
1.714826
1.551509
1.653433
1.666546
2.032518
2.035499
2.338886
2.548695
3.196597
13.064742
41.888952
137.817860
274.986625
572.412014
865.712762
1015.663743
1015.663743
1015.663743
1015.663743
1015.663743
1015.663743
853.172541
559.322834
258.068442
133.762956
44.498444
16.532540
8.878708
8.809566
9.656549
11.798739
17.977953
25.691986
39.490461
51.628947
69.240928
80.321431
89.434981
89.698434
83.819628
72.874427
56.346655
44.114590
29.325485
21.502972
14.886856
11.054873
8.413792
7.058978
6.629825
6.441474
6.116629
6.527901
6.160736
6.145835
6.220937
6.313920
6.316900
##ZVALUE=335
0.632405
0.693798
0.728965
0.709891
0.580549
0.658631
0.796914
0.764728
0.643730
0.707507
0.910759
0.993609
0.770688
0.738502
0.836849
0.771880
0.953674
0.691414
0.728965
0.843406
0.779629
0.897646
0.859499
0.791550
0.925660
0.840425
0.863671
0.947714
0.938773
1.003742
0.988841
0.825524
1.101494
0.988841
0.974536
1.084805
1.177788
1.319647
1.292825
1.259446
1.358986
1.502633
1.562834
1.623631
1.621842
1.846552
2.020597
2.311468
2.414584
6.206632
23.699999
90.609789
189.771652
421.420932
686.515570
1015.599966
1015.599966
1015.599966
1015.599966
1015.599966
1015.599966
904.493928
620.755553
330.145955
174.148679
58.720708
23.110509
9.294748
7.700920
7.894635
8.646846
11.115670
15.307665
24.834871
35.243630
51.353574
63.311458
76.660514
82.723498
83.612800
79.219937
66.640973
55.635571
40.432811
31.508803
20.913482
15.102625
10.640621
8.413792
6.657839
6.053448
6.051660
6.036758
5.837679
5.683899
6.015897
##ZVALUE=340
0.837445
0.903606
0.906587
0.901818
0.959635
0.929832
0.787973
0.878572
1.051426
0.872612
1.134872
1.024604
1.003742
1.096725
0.978708
0.953674
0.991821
0.886917
1.012683
0.983477
1.066923
0.994802
1.033545
1.091957
1.236796
1.226664
1.140833
1.114607
1.221895
1.116991
1.228452
1.168847
1.202822
1.262426
1.432896
1.238585
1.441836
1.306534
1.150966
1.394749
1.413822
1.614690
1.551509
1.626611
1.729727
1.798868
1.957417
1.686811
2.175570
2.130866
2.221465
3.372431
10.380745
54.699779
135.084987
328.547955
549.935699
913.428664
1015.838981
1015.838981
1015.838981
1015.838981
1015.838981
1000.399590
737.614632
391.441584
218.329430
88.479519
34.106970
10.753870
8.147955
7.479787
8.011460
8.523464
10.547638
15.712976
22.368431
34.243464
45.415759
61.057806
70.991516
78.006983
77.983737
73.518753
66.133738
52.834749
41.772723
29.699802
21.857619
14.671683
10.696650
7.969737
6.868839
6.000996
6.040931
5.960464
##ZVALUE=345
0.936985
0.879765
0.897646
0.966787
0.938773
0.970960
1.034737
1.057982
0.994802
0.902414
0.949502
0.938773
0.878572
0.957847
0.847578
0.769496
0.872612
0.908971
0.918508
1.025796
1.004934
0.928640
1.114607
1.001954
1.182556
1.154542
1.122952
1.024604
0.969768
1.037717
1.169443
1.214743
1.260638
1.168847
1.032948
1.198649
1.284480
1.090765
1.232624
1.292825
1.237988
1.327991
1.473427
1.498461
1.497865
1.573563
1.727939
1.587868
1.832843
1.789927
1.940727
2.191663
2.370477
2.772808
5.212426
31.906962
86.451769
228.903890
408.578515
734.765530
986.126661
1015.870571
1015.870571
1015.870571
1015.870571
1015.870571
847.409964
507.428646
286.289454
110.580921
48.411489
14.944673
9.000897
7.672906
7.360578
7.284880
7.617474
9.910464
13.629794
21.376610
30.045509
44.018626
53.873658
64.632893
69.881678
72.889924
69.238544
61.889887
53.307414
40.315986
30.540824
20.316839
15.230775
10.336637
8.107424
6.751418
##ZVALUE=350
0.889897
0.809431
0.968575
0.847578
0.701547
0.674725
0.900626
0.784993
0.742674
0.803471
1.041889
0.853539
0.850558
1.036525
0.977516
0.865459
0.948906
1.062751
0.876784
0.910759
0.878572
0.877976
0.936985
0.971556
0.951886
0.913739
0.841618
1.037717
1.083612
1.067519
1.016855
1.012683
1.130700
1.067519
1.005530
1.115799
1.209974
1.075864
1.062751
1.105666
1.168847
1.198649
1.186728
1.299977
1.235604
1.504421
1.369715
1.500845
1.478791
1.468658
1.487732
1.727939
1.685619
2.050996
2.044439
2.291799
3.232956
15.951991
51.125884
158.442855
309.334993
614.894629
876.168013
1015.805006
1015.805006
1015.805006
1015.805006
1015.805006
915.562510
573.293567
343.780518
151.335001
68.924427
19.624829
9.166598
7.316470
6.731749
6.542802
6.496906
7.153749
9.043813
13.067722
18.925667
28.350949
37.184954
49.230456
56.745410
64.141750
66.818595
63.716769
58.684945
47.481656
39.290786
28.695464
21.512508
14.497638
##ZVALUE=355
0.731945
0.818968
0.807643
0.778437
0.754595
0.899434
0.865459
0.937581
0.711679
0.878572
0.805855
0.823736
0.932813
0.906587
0.903606
1.054406
0.837445
1.059771
0.892878
0.821948
1.067519
0.948906
0.638962
0.804663
1.093745
1.032948
1.125932
0.979900
0.926852
0.911951
1.024604
0.940561
1.006722
1.008511
1.139641
1.020432
1.049638
1.068711
1.099706
1.110435
1.201630
1.174808
1.259446
1.209974
1.304746
1.297593
1.379848
1.322627
1.381636
1.569986
1.622438
1.497865
1.872778
1.803637
1.893640
1.980662
1.872778
2.401471
2.473593
6.744862
23.369789
95.836520
205.058455
441.887975
707.926750
1015.811563
1015.811563
1015.811563
1015.811563
1015.811563
1008.904576
696.141720
450.197458
205.381513
98.821521
28.871894
11.466742
7.338524
6.586909
6.118417
6.157756
6.333590
6.658435
8.210540
10.858774
16.427636
22.868514
32.911897
41.130781
51.109791
56.793690
60.652494
59.078932
52.979589
45.981407
36.356449
##ZVALUE=360
0.791550
0.799894
0.953674
0.815988
0.870824
0.873804
0.879765
0.815988
0.952482
0.846982
0.991821
0.722408
0.800490
0.973940
1.103878
0.823736
0.921488
0.665784
0.959635
0.723600
0.882745
0.902414
0.921488
0.923872
0.897646
0.962615
1.046658
0.817776
1.080632
1.036525
0.946522
1.063943
1.109838
1.067519
1.111627
1.079440
1.047850
1.202822
1.165867
1.304746
1.225471
1.266599
1.246929
1.188517
1.288652
1.179576
1.287460
1.438856
1.486540
1.274943
1.494884
1.656413
1.500845
1.523495
1.644492
1.669526
1.886487
1.990795
1.984835
2.314448
2.509952
3.684759
9.854436
43.759942
111.903548
298.876762
513.860583
880.491734
1015.805006
1015.805006
1015.805006
1015.805006
1015.805006
830.419660
552.246571
270.452499
144.277811
52.257776
19.426942
7.737875
6.517768
6.305575
5.901456
5.704761
5.624890
6.088614
6.789565
9.413958
12.812614
19.377470
25.786757
36.543608
43.643713
50.767660
54.169893
54.380894
##ZVALUE=365
0.843406
0.841618
0.834465
0.705719
0.938773
0.807643
0.922680
0.729561
0.876784
0.859499
0.794530
0.772476
0.861883
0.863671
0.814795
0.856519
1.023412
0.674725
0.855923
0.833869
0.866652
0.942945
0.906587
0.934601
1.010895
0.889897
1.107454
0.862479
0.872612
1.070499
0.924468
1.006722
0.893474
1.040697
0.998974
1.128912
1.163483
0.925660
1.138449
1.052618
1.172423
1.173615
1.109838
1.213551
1.101494
1.349449
1.251698
1.124740
1.196861
1.303554
1.253486
1.245737
1.317859
1.504421
1.559854
1.514554
1.495481
1.646876
1.637936
1.938939
2.055764
2.260804
2.372861
2.785921
4.589558
23.094416
62.856674
171.376467
333.884954
665.761828
950.613022
1015.805006
1015.805006
1015.805006
1015.805006
979.818702
703.262687
378.884673
204.862952
73.655844
28.546453
8.821487
6.520748
5.935431
5.981922
5.481839
5.330443
5.031824
5.173683
6.108880
7.613897
11.346936
15.800595
23.558736
30.275583
38.855672
##ZVALUE=370
0.762939
0.858903
0.791550
0.756979
0.684857
0.862479
0.758767
0.866652
0.937581
0.747442
0.899434
0.917912
0.749826
0.797510
0.864863
0.918508
0.953674
0.815988
0.755787
0.800490
0.935793
0.861883
0.866652
0.836849
0.879765
0.850558
0.953674
0.928640
0.928640
1.052618
1.112819
0.890493
0.869632
0.949502
1.096725
0.966787
0.960827
0.976920
0.942945
1.014471
0.974536
0.964999
1.059771
1.047850
1.098514
1.083612
1.159906
1.042485
1.088977
1.047850
1.140833
1.249909
1.293421
1.276731
1.318455
1.357794
1.382828
1.521707
1.578927
1.574755
1.677871
1.881719
1.828671
2.037883
2.210736
2.295971
2.912879
11.226535
37.140846
126.582980
245.562792
489.511490
744.121671
1015.805006
1015.805006
1015.805006
1015.805006
1015.805006
854.046941
484.015942
272.394419
101.876855
45.091510
13.888478
7.101893
5.693436
5.288720
5.197525
4.799962
4.658699
4.543662
4.642606
5.350709
6.829500
9.255409
14.145970
##ZVALUE=375
0.898838
0.729561
0.783801
0.812411
0.774860
0.947714
0.761747
0.815988
0.836849
0.804663
0.790954
0.883937
0.943542
0.871420
0.834465
0.745654
0.953674
0.988841
0.855923
0.815988
0.703931
0.785589
0.880957
0.969768
0.796914
0.791550
0.962615
0.830889
0.901818
0.847578
0.834465
0.799894
0.825524
0.828505
1.005530
0.944734
0.903606
0.947714
0.903606
0.885725
0.852942
0.887513
1.063943
1.031756
0.947714
0.999570
0.958443
1.192689
1.033545
0.986457
0.884533
1.144409
1.232624
1.174808
1.028776
1.167655
1.247525
1.265407
1.319647
1.330972
1.413822
1.299977
1.468658
1.551509
1.590848
1.584888
1.998544
2.140999
2.473593
6.050467
20.758510
76.475739
166.222453
381.416082
603.948832
941.637754
1015.805602
1015.805602
1015.805602
1015.805602
946.599841
599.258542
377.009511
174.776912
87.527633
27.213693
10.142922
5.614758
5.141497
4.904866
4.671812
4.404783
4.294515
4.207492
4.234910
4.915595
##ZVALUE=380
0.841618
0.726581
0.688434
0.774860
0.799894
0.813603
0.752807
0.695586
0.912547
0.777841
0.752807
0.666976
0.759959
0.646710
0.730753
0.665784
0.821948
0.871420
0.835657
0.808835
0.885725
0.859499
0.957847
0.901818
0.855923
0.877976
0.943542
0.735521
0.849962
0.885725
0.800490
0.824928
0.818968
0.802875
0.938773
0.914931
1.008511
0.945926
0.955462
0.925660
0.963807
0.933409
1.081824
0.911951
0.983477
0.900626
0.866652
1.003742
1.054406
0.934601
1.051426
1.038909
1.026988
0.999570
1.050830
1.111627
1.151562
1.305938
1.169443
1.095533
1.243949
1.261830
1.298785
1.580715
1.433492
1.552701
1.659989
1.797676
1.872778
2.165437
2.410412
3.446937
16.327500
50.540566
152.591467
279.837847
538.475513
801.195502
1015.805602
1015.805602
1015.805602
1015.805602
999.199748
767.462850
447.319746
267.089009
118.120909
51.999688
13.787746
6.302595
4.912615
4.837513
4.502535
4.213452
4.165769
4.134774
##ZVALUE=385
0.745654
0.759959
0.567436
0.742674
0.771880
0.635982
0.655651
0.686646
0.840425
0.780821
0.905991
0.853539
0.852942
0.761747
0.877976
0.772476
0.893474
0.874996
0.709891
0.693798
0.637770
0.640750
0.915527
0.864863
0.707507
0.753999
0.792742
0.739694
0.806451
0.788569
0.828505
0.687838
0.722408
0.752807
0.824928
0.904799
0.871420
0.883937
0.857711
0.783801
0.810623
0.846982
0.902414
0.767708
0.794530
0.725985
0.815988
1.046658
0.947714
0.995994
0.974536
0.949502
1.093745
0.935793
0.968575
1.068711
0.911951
1.143813
1.252890
1.130700
1.131892
1.161695
1.318455
1.237988
1.270771
1.366735
1.306534
1.557469
1.727939
1.768470
1.997948
2.125502
2.262592
2.772808
6.301403
36.968589
96.524954
241.088867
422.612429
744.549036
988.711715
1015.792489
1015.792489
1015.792489
1015.792489
930.638909
669.599771
370.787978
208.312869
81.939697
31.532645
8.117557
5.021691
4.386902
4.167557
3.955960
##ZVALUE=390
0.766516
0.720620
0.674725
0.723600
0.676513
0.642538
0.711679
0.754595
0.730753
0.789762
0.810623
0.868440
0.953674
0.790954
0.915527
0.832677
0.643730
0.854731
0.744462
0.743866
0.819564
0.649691
0.766516
0.762939
0.891685
0.778437
0.899434
0.971556
0.859499
0.813603
0.793934
1.019835
0.704527
0.817776
0.848770
0.826716
0.825524
0.802875
0.739694
0.759959
0.790954
0.846982
0.855923
0.685453
0.900626
1.006722
0.945926
0.852942
1.020432
1.026988
0.947714
1.039505
1.038909
0.998974
1.035929
0.897646
1.006722
0.972748
1.104474
1.111627
0.960827
1.249909
1.326799
1.154542
1.153946
1.297593
1.407862
1.532435
1.597404
1.665950
1.797676
2.047420
2.053976
2.172589
2.010465
2.244711
3.388524
18.211603
61.367750
190.029740
353.491902
653.682947
885.163546
1015.805006
1015.805006
1015.805006
1015.805006
1006.943583
806.168914
492.043495
284.488797
113.577843
49.522519
12.708902
5.780458
4.368424
##ZVALUE=395
0.663996
0.854731
0.610948
0.680685
0.760555
0.637770
0.808835
0.579953
0.784993
0.777841
0.628829
0.748634
0.606775
0.724792
0.707507
0.714660
0.655651
0.719428
0.707507
0.685453
0.721812
0.875592
0.751615
0.732541
0.653863
0.875592
0.820756
0.757575
0.946522
0.972748
0.837445
0.858903
0.814795
0.796914
0.848770
0.839829
0.868440
0.743866
0.953674
0.807643
0.999570
0.897646
0.776649
0.858903
0.885725
0.882745
0.989437
0.770688
0.774860
0.934601
0.887513
0.801682
1.020432
1.049638
0.970960
1.073480
0.983477
1.045465
1.073480
1.030564
0.996590
0.966787
1.113415
1.250505
1.153946
1.378655
1.240969
1.185536
1.468658
1.634955
1.672506
1.800656
1.760721
1.776814
1.737475
2.031922
1.934767
2.181530
2.712607
11.299849
40.891767
145.624876
282.835960
549.339652
796.405673
1015.805006
1015.805006
1015.805006
1015.805006
1015.805006
926.407576
586.950779
377.533436
181.954503
85.904002
25.430918
##ZVALUE=400
0.774860
0.633597
0.576973
0.414848
0.646710
0.551939
0.813603
0.683665
0.654459
0.757575
0.752807
0.700951
0.768900
0.714660
0.712872
0.902414
0.707507
0.707507
0.724792
0.741482
0.724792
0.674725
0.888705
0.822544
0.816584
0.797510
0.760555
0.788569
0.689626
0.819564
0.765920
0.772476
0.621676
0.747442
0.752807
0.722408
0.886917
0.738502
0.820756
0.872612
0.915527
0.813603
0.927448
0.944734
0.875592
0.842810
0.838637
0.853539
0.831485
0.862479
0.913739
1.018643
0.849962
0.941753
0.786781
1.059771
1.007915
1.054406
1.030564
0.971556
1.047850
1.140833
1.126528
0.994802
1.230836
1.252890
1.408458
1.471639
1.369715
1.508594
1.623631
1.684427
1.645684
1.554489
1.816750
1.490712
1.686811
1.792908
2.004504
2.043843
2.268553
6.496906
24.453998
90.300441
193.711519
437.806845
689.370036
1009.885669
1015.805006
1015.805006
1015.805006
1015.805006
1001.616716
682.748556
451.822877
230.414867
##END
