##TITLE=
##FORMAT=SPECTACLE-ASCII V-1.2
##DATA TYPE=ULTRAVIOLET SPECTRUM
##SECOND TYPE=ULTRAVIOLET SPECTRUM
##DATE=09/27/17
##TIME=13:41:12
##SPECTROMETER/DATA SYSTEM=SPECTACLE
##XUNITS=NM EM
##YUNITS=ENERGY
##YFACTOR=1
##FIRSTX=220
##LASTX=410
##NPOINTS=96
##3DDATA=Equidistant
##ZUNITS=NM EX
##FIRSTZ=210
##LASTZ=400
##ZPOINTS=39
##XYDATA=(Y..Y)
##ZVALUE=210
4.218817
3.832579
3.370643
3.675818
4.615784
3.479719
3.731847
4.603863
3.914833
3.875494
3.569722
3.101826
3.084540
3.504753
3.523827
3.385544
3.652573
3.172755
3.623962
3.654957
4.568696
4.059672
3.917813
4.663467
4.553795
4.526973
4.368424
5.511642
5.206466
5.282760
5.664825
6.147623
5.886555
5.897880
5.938411
5.214810
5.756617
6.000996
5.795956
6.171465
6.495714
6.738901
7.312894
6.734729
7.713437
7.038713
6.909966
7.350445
6.665587
6.339550
7.409453
7.103682
7.832646
8.015633
7.964969
6.559491
7.365942
7.620454
8.159876
7.339716
7.566810
7.679462
7.089972
7.273555
8.261800
7.722974
7.468462
8.335710
9.693503
11.522770
12.504458
13.203621
16.308427
18.705726
18.793941
19.327998
20.017624
19.362569
19.673705
17.679930
15.763640
14.858842
12.197495
11.492968
10.485649
8.957982
8.504987
8.246899
7.230639
7.647872
7.832646
7.157922
7.073879
6.860495
7.735491
7.897615
##ZVALUE=215
11.748672
11.467934
9.912848
8.681417
8.083582
7.240772
6.862879
7.171631
7.532835
6.933808
6.523728
6.052852
4.951954
4.722476
4.356503
4.263520
3.368855
4.197955
3.887415
4.355907
3.934503
3.967881
4.641414
4.416704
4.522800
5.157590
5.440712
6.654859
6.151795
5.990863
6.373525
5.681515
6.544590
6.637573
6.254911
6.503463
7.221699
7.469654
7.430911
7.647872
7.449985
6.519556
8.198619
7.521510
7.895827
7.167459
6.698966
7.620454
7.823706
7.693768
7.322431
7.965565
8.425713
8.098483
8.242726
8.471608
8.409619
8.217692
8.054972
7.585883
8.693933
8.295774
8.430481
9.459853
9.223819
8.894801
9.679794
10.079741
10.600686
12.335777
12.881756
14.950633
16.810894
16.327500
18.345714
20.612478
19.123554
19.344687
19.336939
18.622875
15.499592
14.637709
11.694431
11.793971
10.966659
9.471774
7.867813
7.490516
7.231832
7.173419
7.556677
7.659793
6.633997
6.832480
7.519722
6.758571
##ZVALUE=220
32.053590
33.127666
37.835836
34.762621
33.293962
27.649999
23.481846
17.081499
14.374852
14.563799
14.580488
14.988780
14.073849
12.252927
11.563897
9.260774
7.756948
6.080866
4.806519
4.644990
4.152656
4.408956
4.548430
5.017519
5.728602
5.354881
5.857944
5.461574
6.172657
7.106662
6.009936
7.086992
7.037520
7.449985
7.791519
7.134676
7.705688
7.986426
7.848740
8.121729
9.060502
7.830858
8.554459
8.216500
9.043813
8.933544
8.185506
8.347631
8.324981
9.112954
9.582639
9.402633
9.484887
10.600686
9.853840
10.384917
9.945631
10.309815
10.260940
10.486841
11.139512
9.975433
10.586977
10.286570
9.978414
10.505915
11.352897
11.347532
11.439919
14.355779
13.694763
16.895533
16.133785
19.298792
20.348430
20.735860
22.086501
19.304752
19.076467
18.591881
18.115640
15.533566
14.779568
13.349652
12.431741
11.322498
9.694695
8.943677
9.105802
7.413626
8.945465
8.450747
8.156896
8.819699
8.103848
8.334517
##ZVALUE=225
49.528480
54.102540
68.953633
90.104938
95.160604
93.724728
86.914897
70.816875
54.417849
38.839579
30.836463
27.898550
30.088425
28.052926
28.668642
27.826428
22.378564
21.184683
13.832450
9.513497
7.215738
5.775690
5.379915
5.764961
6.096959
5.550981
6.642938
6.070733
6.359816
7.006526
7.161498
7.493496
7.641912
8.213520
8.057952
8.618832
8.637905
8.776784
9.448528
9.284616
9.546876
9.356737
9.349585
9.904504
9.870529
9.612441
9.473562
9.046793
10.193586
9.819865
11.885762
10.835528
11.788607
11.980534
13.241768
12.576580
12.897849
12.321472
13.916492
13.758540
13.764501
14.594793
14.420748
14.200807
13.426542
14.027953
14.345646
16.473532
16.451478
17.168522
17.690659
17.847419
18.249750
21.367669
22.265911
21.849871
21.223426
19.839406
20.220876
16.720891
19.395947
16.539693
15.724897
13.836622
13.047457
12.841821
10.687709
10.498762
12.236834
10.074973
10.626912
11.073947
9.737611
10.804534
10.212660
10.303855
##ZVALUE=230
41.804910
43.778419
71.055889
121.217966
159.005523
203.044415
221.603513
224.416852
204.390883
173.643827
121.665001
86.398721
57.336688
51.610470
50.863624
53.160787
52.922964
50.076842
45.192838
38.265586
27.968884
19.167662
13.977885
8.998513
7.801652
7.111430
6.869435
7.148981
6.900430
8.385777
8.060932
8.723736
8.544922
8.510947
9.038448
9.501576
9.294748
9.947419
9.392500
9.637475
10.053515
10.255575
10.230541
10.649562
10.483861
10.064840
10.165572
10.463595
12.651682
11.487603
12.807846
12.985468
13.849735
13.403893
14.501810
15.883446
16.740561
16.648769
19.010901
16.813874
18.064976
18.637776
17.559528
20.029545
19.615889
18.824935
20.119548
20.450950
19.573569
21.476746
22.119880
23.091435
23.869872
27.942657
28.146505
26.188493
24.823546
25.862455
25.018454
22.346973
20.885468
20.820498
19.805431
17.889738
16.994476
17.088652
16.519427
14.847517
13.399720
13.259649
13.816953
12.683868
12.477636
14.088750
13.182759
13.976693
##ZVALUE=235
14.362931
15.354753
37.999749
75.244904
138.277411
199.202895
300.118923
362.496972
423.204899
428.933501
376.335979
312.452912
243.025422
157.960653
116.441846
82.776546
78.981519
81.745982
86.313486
86.086988
79.034567
68.751574
51.455498
41.843653
27.421713
17.947555
12.655854
9.408593
9.769797
8.111596
9.146929
9.613633
9.413958
9.645820
9.605885
10.527968
10.164976
10.005832
10.379553
10.108948
9.700656
10.681748
10.287762
10.845661
9.242892
11.263490
10.213852
11.024475
11.196733
11.591911
12.233853
13.775826
14.347434
15.201569
16.573668
17.707944
18.545985
19.260645
19.028783
20.339489
21.016598
20.756721
22.421479
22.654533
23.915768
22.915602
22.566915
22.197962
24.628639
27.206540
25.608540
26.500821
29.978752
29.244423
32.900572
31.709671
32.547712
30.454993
30.358434
26.391745
26.194453
25.473833
23.335814
23.327470
21.385550
21.944642
20.603538
18.773675
19.794703
17.798543
19.405484
17.883778
17.815828
17.047524
16.815662
16.467571
##ZVALUE=240
2.768636
2.474785
5.958676
19.865632
43.833852
102.576613
174.243450
310.192704
420.698524
521.539450
641.498566
659.005642
603.366494
523.471832
388.565660
271.616578
165.343881
123.804808
100.438595
103.328824
112.988949
115.801692
114.292502
102.172494
86.860657
61.524510
50.619841
31.521916
23.527741
16.468763
14.654994
11.776686
10.747910
11.234879
11.619925
10.592937
10.445714
10.792613
11.493564
11.351705
10.747910
10.053515
10.850430
10.900497
10.149479
11.372566
11.561513
10.598898
10.873675
12.109876
13.740659
12.472868
13.539791
14.489889
15.749931
17.314553
17.962456
18.078685
19.456744
19.977689
20.366907
20.374656
21.139979
22.153854
22.009611
23.112893
21.453500
26.484728
25.793910
27.835965
27.529597
30.689836
31.576753
33.012629
33.574700
33.688545
33.049583
33.086538
31.853914
32.662749
30.189753
27.784705
28.238893
25.731921
23.842454
23.407936
24.013519
22.773743
22.621751
21.421909
21.638870
19.643903
19.413829
18.241405
20.107627
19.201636
##ZVALUE=245
2.387762
2.514720
2.268553
2.741814
5.404949
11.868477
40.175915
83.533525
192.417502
303.784609
495.230556
634.265542
741.230845
809.944868
788.676739
678.824782
550.572872
379.484892
262.886882
157.164931
119.213462
102.753639
115.022659
125.126839
131.403804
128.268003
113.846660
98.416805
76.866746
57.143569
41.807890
28.440952
19.617677
14.600754
13.193488
11.913776
12.129545
10.759830
10.682940
10.658503
8.592606
10.093451
10.349751
10.046959
9.727478
10.488629
10.875463
10.977983
11.217594
10.776520
12.364984
11.856556
12.754798
12.964606
13.165474
14.467835
14.915466
15.972853
14.444590
16.439557
15.400648
17.466545
17.769933
19.063950
18.682480
20.788908
21.587610
20.223856
22.499561
23.194551
24.473667
24.987459
26.422739
30.620694
29.137731
29.840469
29.958487
29.044747
27.883649
26.974678
26.026964
25.183558
25.815964
24.104714
22.012591
21.648407
21.448731
20.643473
21.451712
19.563437
20.778775
18.137693
17.619729
18.425584
18.940568
19.388795
##ZVALUE=250
1.898408
1.843572
1.935959
2.215505
2.352595
2.512932
2.651811
8.069873
29.611588
66.723824
166.614652
293.337703
440.216660
647.220612
802.045465
929.327607
941.614509
855.007768
737.327933
517.120957
353.344679
229.384899
131.805539
103.866458
109.295845
122.718811
136.387944
142.377615
137.075782
123.098493
108.457804
81.125498
62.943697
40.911436
28.400421
17.621517
13.203621
11.225939
10.839701
9.646416
9.620786
10.264516
9.940863
8.827448
9.425879
8.726716
9.349585
9.551644
9.404421
10.068417
10.129809
11.146665
11.119843
11.161566
12.062788
11.639595
12.232661
13.114810
13.582706
14.009476
13.526678
15.027523
14.576912
15.292764
16.060472
16.462803
18.212795
17.427802
17.944574
19.643903
20.566583
20.727515
22.194982
24.376512
25.037527
25.169849
24.731755
23.850799
22.698641
23.041964
22.297502
20.671487
20.978451
19.240975
19.616485
19.151568
17.531514
18.643737
17.442703
17.678738
17.164946
16.394854
16.700625
16.040802
16.615987
15.662909
##ZVALUE=255
2.062917
1.674891
1.705885
1.989603
1.981854
2.406836
2.111793
2.387762
2.617836
4.088879
17.894506
47.545433
132.152438
240.011811
434.779525
626.747012
895.445943
1015.805006
1015.805006
1015.805006
960.335732
709.154010
507.667661
284.273624
173.165798
106.860995
94.886422
108.962655
129.387975
143.903494
151.299834
143.311620
133.536458
106.440783
83.860755
57.449937
39.347410
24.446845
16.869903
11.902452
10.357499
9.641647
9.225607
8.817911
9.424686
9.481907
9.071827
9.529591
9.537935
9.905696
10.193586
9.964705
10.257959
10.540485
11.288524
10.826588
11.178851
11.586547
12.395978
13.062954
12.543797
13.572574
12.474656
14.265776
13.748407
13.531446
15.138984
14.863610
16.039610
16.519427
18.582940
20.422935
19.230843
20.380616
19.775629
20.723939
20.396709
20.742416
19.926429
19.594431
18.574595
17.933846
17.492771
16.441941
16.346574
16.002655
15.707612
14.893413
14.840961
14.976859
14.513731
14.445782
14.415979
14.878511
14.365911
14.312863
##ZVALUE=260
1.561642
1.650453
1.512766
1.599789
1.643896
1.769662
1.836419
1.857877
2.029538
2.145767
2.346635
3.418922
8.911490
37.088990
81.266761
204.972625
362.921953
641.428828
886.191726
1015.659571
1015.659571
1015.659571
1015.659571
1003.318429
679.981709
461.227894
257.083774
150.519609
94.306469
89.280605
109.200478
130.071640
143.760443
150.057673
147.723556
129.238963
112.370849
82.012415
60.485601
39.184690
27.174950
15.847683
12.248755
9.828806
9.022951
8.945465
9.298921
9.380579
8.634925
9.717941
10.112524
10.008812
10.175705
10.577440
10.213852
10.623932
10.684729
11.497736
12.156963
12.540817
11.779666
11.401772
12.284517
12.708902
13.487935
12.436509
13.716817
13.448000
14.914870
15.247464
16.234517
16.052723
17.366409
18.175840
16.907454
18.157959
18.380880
17.727613
16.826987
16.959906
16.094446
15.561581
14.773607
13.480783
14.710426
13.767481
13.900995
13.123751
13.779998
13.109446
13.326406
12.666583
13.190508
12.459755
12.561679
12.284517
##ZVALUE=265
1.581907
1.612902
1.746416
1.378655
1.803637
1.625419
1.633763
1.737475
1.785755
1.901984
1.870990
2.162457
2.396703
2.939701
4.800558
22.116899
57.324767
150.508881
287.545919
598.258972
895.295739
1015.805006
1015.805006
1015.805006
1015.805006
1015.805006
902.560949
635.686517
335.565805
201.969743
122.002959
80.098510
84.846616
111.269951
131.380558
150.381923
157.568455
148.677826
135.028958
107.092857
85.356832
58.935881
41.445494
23.887753
16.249418
11.681914
10.108948
10.087490
9.968877
9.696484
10.086894
10.736585
11.376739
11.005998
11.232495
12.176633
11.402965
11.758804
12.303591
12.623668
12.875795
13.315678
12.195706
12.856722
13.476610
13.721585
13.339520
15.011430
13.697743
14.763474
14.512539
15.268922
16.164780
16.356707
17.276406
17.102957
16.814470
16.082525
15.350580
15.530586
14.568567
14.600754
13.572574
13.661981
13.185740
13.555884
13.269782
13.024807
12.394786
12.736917
12.106895
12.632608
12.563467
12.222528
11.276603
11.982918
##ZVALUE=270
1.542568
1.324415
1.506805
1.565814
1.626611
1.813769
1.550913
1.874566
1.798868
1.897812
1.904964
1.886487
2.043843
1.965761
2.152920
2.244711
3.234744
11.309981
32.347441
105.769634
221.071839
413.470864
791.099668
1015.805006
1015.805006
1015.805006
1015.805006
1015.805006
1015.805006
884.009004
595.675707
299.646854
165.322423
78.587532
68.585873
89.023709
109.636784
138.385892
151.210427
156.701803
155.250430
133.354664
114.483833
83.895922
62.710643
38.769841
26.798844
18.942952
13.845563
11.226535
10.638833
10.940433
11.751652
11.754632
12.556911
11.966825
12.437701
13.452768
13.401508
13.014674
12.549758
13.285875
13.545752
13.319850
13.425946
13.098717
13.551712
14.076829
14.933944
15.610456
15.468597
15.114546
15.525818
16.591549
16.493797
16.037822
16.313791
15.724897
14.750957
14.823675
14.541745
14.477968
13.335943
12.914538
13.587475
12.235641
12.388825
12.273788
12.501478
12.115836
11.416674
11.751652
11.947751
11.558533
11.783838
11.172891
##ZVALUE=275
1.248717
1.216531
1.562834
1.434684
1.488924
1.407862
1.362562
1.584888
1.606941
1.647472
1.582503
1.759529
1.704693
1.916885
1.971722
1.789927
2.187490
2.365708
2.834797
7.896423
26.202798
68.449974
189.979672
358.170867
701.076984
979.740620
1015.805006
1015.805006
1015.805006
1015.805006
1015.805006
1015.805006
770.446658
405.014753
226.504803
98.169446
60.402751
63.814521
83.675981
110.189915
132.190585
149.503946
156.081915
148.010850
136.264563
107.364655
86.640716
59.982538
43.460727
27.786493
20.314455
14.464855
13.026595
12.424588
12.242794
12.956858
13.324618
13.068914
13.304949
13.891459
13.485551
13.791919
14.656782
14.230609
13.935566
13.965964
14.139414
14.273524
15.315413
15.602708
14.810562
15.701652
15.956759
16.421676
16.027689
15.864968
16.183853
15.497804
15.130639
14.608502
14.534593
13.676882
13.704896
13.070703
12.644529
12.618899
12.299418
11.540651
11.839867
11.578798
11.381507
11.331439
10.918975
11.386871
10.539889
11.202693
##ZVALUE=280
1.207590
1.286864
1.147985
1.238585
1.214743
1.200438
1.166463
1.144409
1.347661
1.444817
1.487732
1.445413
1.602769
1.615882
1.509786
1.892447
1.697540
1.853704
1.897812
2.378821
2.259612
3.341436
17.464757
55.176616
160.623789
292.034745
548.239946
809.713006
1015.734673
1015.734673
1015.734673
1015.734673
1015.734673
1015.734673
854.856372
489.412546
290.039778
125.685930
68.287849
47.615767
57.556629
84.788799
105.984807
131.939650
147.526860
153.107643
147.434473
129.486918
110.269785
82.884431
61.962605
40.793419
30.429959
20.283461
16.022921
13.830662
13.559461
13.289452
13.956428
13.884902
13.741851
14.245510
13.789535
14.439821
14.208555
14.499426
14.512539
14.785528
14.838576
15.370846
15.837550
16.322732
15.936494
16.677976
16.086698
16.053915
15.853643
15.378594
15.233755
14.621615
14.192462
13.262630
12.646914
12.610555
12.395978
12.191534
12.175441
11.991858
11.868477
11.246800
11.538863
10.888577
11.064410
10.271668
10.057688
10.028481
##ZVALUE=285
1.139641
1.012683
1.198649
1.184940
1.249909
1.229644
1.255870
1.314878
1.350641
1.445413
1.345873
1.316667
1.279712
1.409650
1.378655
1.592636
1.549721
1.475811
1.788735
2.027750
2.131462
2.288818
2.347827
2.820492
7.541776
26.768446
91.773868
187.082887
395.872593
639.555454
930.169821
1015.811563
1015.811563
1015.811563
1015.811563
1015.811563
1015.811563
665.068626
413.307548
197.637677
98.266006
44.010878
38.598776
55.413842
75.769424
105.082989
123.398900
142.657757
147.390962
144.175887
132.268667
109.308958
88.948607
64.123869
46.830773
29.994845
22.376776
17.625690
15.557408
15.218854
14.661551
14.959574
15.265942
15.320778
14.984608
15.312433
14.938712
15.709996
15.457869
15.750527
15.996695
16.377568
16.973615
16.469955
16.510487
16.022921
15.843511
15.809536
15.324950
14.378428
14.206767
13.695955
13.953447
13.248920
12.890697
12.210608
11.742711
11.946559
11.696815
11.395812
11.049509
11.376739
11.009574
10.273457
10.301471
10.392666
##ZVALUE=290
1.059771
1.064539
1.127720
1.180768
0.974536
1.188517
1.386404
1.225471
1.288652
1.346469
1.273751
1.498461
1.524687
1.314878
1.349449
1.304746
1.574755
1.485944
1.592636
1.785755
1.622438
1.903772
2.012849
2.204776
2.400875
2.529621
3.610849
10.133982
47.127604
116.443634
229.731798
493.881702
781.188607
1015.823483
1015.823483
1015.823483
1015.823483
1015.823483
1015.823483
864.076018
567.295551
280.555487
145.000815
55.113435
31.796694
36.939979
51.011443
73.666573
94.811916
120.628476
134.949684
145.909786
144.656897
129.089952
113.129616
84.157586
67.251921
45.090914
32.848716
23.206472
19.342899
16.191602
15.722513
15.545487
15.146732
14.993548
15.755892
16.140938
16.171932
16.367435
16.256571
16.910434
16.461611
16.257763
16.311407
16.200542
16.101599
15.597939
15.242696
14.888644
13.732910
13.631582
13.794899
12.878776
12.791753
12.439489
12.231469
11.764765
12.185574
11.606812
11.778474
10.843873
11.483431
10.520816
10.924935
10.800958
##ZVALUE=295
1.074672
1.224875
0.953674
1.008511
1.042485
1.024604
1.194477
1.132488
1.002550
1.126528
1.105666
1.273751
1.288652
1.176596
1.233816
1.296997
1.348853
1.334548
1.177788
1.505613
1.556873
1.619458
1.704693
1.810789
1.975894
2.325773
2.405643
2.588630
3.080964
4.458427
14.674664
67.062974
158.078671
382.418633
637.000799
1015.805006
1015.805006
1015.805006
1015.805006
1015.805006
1015.805006
1015.805006
757.926702
393.250585
213.313699
75.900555
36.402941
25.517941
31.774640
49.031973
67.524910
93.898773
113.520622
133.243799
140.728951
136.553645
126.716495
105.271935
87.185502
63.261986
48.332810
33.145547
25.131702
18.889904
16.775727
16.009808
15.427470
15.316606
16.290545
15.914440
16.272664
16.427636
16.137958
15.981793
15.597939
15.958548
15.607476
15.484691
15.171766
14.879704
14.171600
13.124943
13.057590
13.502836
12.676716
12.696981
11.996627
12.203455
11.530519
11.171699
11.103749
10.676980
10.662675
10.525584
10.143518
10.030866
##ZVALUE=300
0.828505
1.079440
0.932813
0.944734
0.886917
1.121759
1.018643
1.105666
0.803471
1.063943
1.046658
1.275539
1.015663
1.076460
0.963807
1.097918
1.126528
1.126528
1.053810
1.174808
1.421571
1.402497
1.552701
1.521707
1.632571
1.785755
2.002716
1.920462
2.009869
1.991987
2.583861
2.834797
6.581545
36.409497
94.295740
254.078507
447.720885
831.063986
1015.805006
1015.805006
1015.805006
1015.805006
1015.805006
1015.805006
932.863951
520.852804
304.563642
130.792856
61.730742
24.429560
21.714568
31.668544
43.766499
66.097975
85.260868
111.413598
124.814510
134.068727
135.999918
124.017596
108.113885
84.017515
65.423846
47.243834
34.049749
23.945570
19.840598
16.965866
15.499592
15.008450
15.291572
15.011430
15.197992
14.999509
14.927983
15.028715
14.573932
14.051795
13.710856
13.053417
12.918711
13.534427
12.675524
12.285709
12.098551
11.629462
11.630654
10.843873
11.012554
10.954738
10.775924
10.740757
10.626912
10.126829
9.747744
10.188818
##ZVALUE=305
0.971556
0.933409
0.999570
1.006722
1.004934
0.970960
0.842810
0.922680
1.007915
0.959635
0.955462
0.916719
0.930429
0.989437
1.034737
0.965595
1.098514
1.077652
1.149774
1.196861
1.339912
1.265407
1.328588
1.407862
1.363754
1.437664
1.487732
1.685619
1.885891
2.066493
1.913905
2.303720
2.439618
2.438426
4.321933
22.058487
62.753558
185.613632
346.787572
673.002005
977.271795
1015.805006
1015.805006
1015.805006
1015.805006
1015.805006
1015.804410
712.027550
434.897542
195.600986
94.465613
33.338666
19.332767
22.044778
29.348731
45.695901
62.761903
85.313916
102.951527
119.765997
127.696991
125.773549
117.327571
100.025535
82.658529
59.370995
46.150684
30.786991
23.223758
17.630458
15.726686
14.531612
13.552904
13.961792
13.699532
13.298988
12.997985
12.379885
12.678504
12.171865
12.364984
11.551976
11.425614
11.673570
11.418462
11.193752
11.291504
10.804534
10.601878
10.174513
10.133982
9.727478
9.927750
9.664893
9.556413
9.510517
##ZVALUE=310
0.864863
0.870824
0.894666
0.926852
0.838637
0.814795
0.830889
0.770688
0.846982
0.728965
1.027584
0.822544
1.024604
1.022816
1.113415
1.022816
1.076460
0.951886
1.123548
1.082420
1.040697
1.087785
1.138449
1.100898
1.525879
1.270771
1.390576
1.407862
1.500845
1.648664
1.603961
1.687407
1.794696
1.976490
2.245903
2.425909
2.696514
9.523630
31.830668
110.953450
227.221847
486.818552
766.505599
1015.799642
1015.799642
1015.799642
1015.799642
1015.799642
1015.799642
949.119925
626.921654
310.575962
161.839724
57.599545
24.771690
16.666651
19.452572
27.723908
38.754940
57.785511
72.805882
95.964670
108.790994
119.999647
119.814873
109.448433
99.006891
79.737902
61.658621
42.341948
31.173825
21.611452
17.873645
14.058948
13.054609
12.135506
11.491776
11.323690
11.179447
10.618567
10.753870
11.051893
10.378957
10.286570
10.475516
10.303855
10.318756
10.390878
10.184646
9.994507
9.917617
9.691715
9.743571
9.137988
9.091496
8.916855
##ZVALUE=315
0.790954
0.803471
0.847578
0.803471
0.702739
0.826716
0.850558
0.930429
0.917912
0.833869
0.928640
0.832677
1.001954
0.864863
0.883937
0.796914
0.944734
0.920892
1.060963
1.031756
1.071692
1.141429
1.147985
0.997782
1.170635
1.185536
1.278520
1.343489
1.306534
1.258850
1.409650
1.490712
1.550913
1.619458
1.978874
2.087951
2.175570
2.419949
2.768636
5.045533
16.351938
69.698691
157.564878
369.440913
623.299479
1007.933021
1015.810966
1015.810966
1015.810966
1015.810966
1015.810966
1015.810966
830.131769
442.200899
238.928795
83.308816
34.347773
15.779734
15.009642
19.107461
24.389625
37.030578
49.926639
69.476962
85.647702
102.977753
110.518932
112.324953
105.728507
89.179873
75.117946
56.383610
42.218566
27.766824
20.852685
14.990568
12.495518
11.014938
10.585785
10.349751
10.108948
9.974837
9.614825
9.693503
9.660721
9.323955
9.771585
9.826422
9.767413
9.506941
9.346604
8.852482
9.274483
8.885860
8.958578
9.027719
##ZVALUE=320
0.615716
0.668764
0.670552
0.579953
0.753999
0.698566
0.683665
0.860691
0.976920
1.009703
0.686646
0.820756
0.737906
0.766516
0.925660
0.800490
0.684857
0.862479
0.849962
0.924468
0.921488
0.922680
0.957847
0.969768
1.002550
1.054406
1.051426
0.959635
1.138449
1.171827
1.531839
1.222491
1.273751
1.208782
1.497865
1.757741
1.558661
1.708865
1.726747
2.138615
2.200603
2.870560
7.268786
39.138794
102.134943
274.962783
469.108820
826.227665
1015.749574
1015.749574
1015.749574
1015.749574
1015.749574
1015.749574
954.442620
543.083549
314.351916
132.947564
57.425499
18.672943
12.110472
12.659431
15.262961
20.964742
29.733777
45.798421
60.727596
79.508424
93.284845
103.728771
105.136633
99.088550
87.154508
69.232583
53.931475
36.765933
27.441978
18.236637
13.857484
10.776520
9.859800
9.263754
9.345412
9.054542
9.078979
8.932948
9.223819
9.072423
8.812547
8.819699
8.451939
8.333921
8.646846
8.837581
8.568764
8.708835
##ZVALUE=325
0.695586
0.679493
0.702739
0.744462
0.794530
0.704527
0.714660
0.658631
0.587702
0.667572
0.923872
0.782609
0.802875
0.758767
0.804663
0.817776
0.783801
0.846982
0.926852
1.045465
1.003742
1.102686
0.934601
0.938773
1.046658
1.120567
1.021624
1.085997
1.088977
1.085997
0.986457
1.100898
1.389980
1.186728
1.427531
1.316667
1.406670
1.519918
1.852512
1.733899
1.533628
1.951456
2.352595
2.555847
4.436970
25.510788
68.114400
189.475417
350.378752
677.988529
976.178646
1015.805006
1015.805006
1015.805006
1015.805006
1015.805006
1004.818678
634.588003
390.814543
176.961422
84.421635
25.083423
12.044907
9.736419
10.499954
13.999939
18.528700
28.522611
40.785670
60.465932
74.653625
89.623928
96.086860
98.120570
91.391802
77.196956
65.326691
47.590733
35.717487
23.059845
16.603470
12.450814
10.596514
9.101629
8.859634
8.503795
8.554459
8.136630
8.639693
7.923841
8.104444
8.331537
8.424520
8.382797
7.977486
8.073449
##ZVALUE=330
0.752807
0.650883
0.655651
0.744462
0.734925
0.728965
0.625849
0.562668
0.680685
0.687838
0.794530
0.599623
0.771880
0.632405
0.773668
0.673532
0.813603
0.786781
0.600815
0.890493
0.843406
0.833869
0.947714
0.864863
0.874996
0.842810
0.819564
1.113415
0.851750
0.932813
1.019835
0.844598
0.850558
1.076460
1.218915
1.224875
1.199841
1.306534
1.350641
1.381636
1.369715
1.677871
1.497865
1.910925
2.027750
2.240539
2.792478
10.981560
36.291480
122.037530
244.485736
515.686870
786.286592
1015.805006
1015.805006
1015.805006
1015.805006
1015.805006
1015.805006
785.612464
510.084629
237.173438
120.069981
41.307807
16.241670
8.790493
9.059906
9.441972
11.982918
18.265843
25.897622
39.612651
52.741766
71.381927
81.629753
91.624856
90.444684
84.160566
75.682998
58.549643
47.075748
31.137466
22.904873
15.986562
12.004972
9.994507
8.848906
8.339882
8.292794
8.098483
8.108616
8.096695
7.942915
7.881522
7.714629
8.072853
##ZVALUE=335
0.701547
0.753999
0.638962
0.624657
0.555515
0.755787
0.602603
0.730753
0.696778
0.823736
0.819564
0.694990
0.752807
0.704527
0.713468
0.718832
0.652671
0.761747
0.875592
0.839829
0.749826
0.795722
0.910759
0.885725
0.847578
0.847578
0.904799
0.830889
0.926852
0.910759
0.993609
1.043677
0.938773
1.062751
1.294613
1.090765
1.169443
1.196861
1.201630
1.148582
1.339912
1.415610
1.318455
1.583695
1.679659
1.693964
1.954436
2.310872
2.489686
5.088449
18.304586
74.697733
162.615776
380.022526
632.218719
1000.089645
1015.805602
1015.805602
1015.805602
1015.805602
1015.805602
904.496908
620.710850
327.034593
171.123743
58.658719
23.193955
9.748936
8.436441
8.381605
9.219646
11.694431
16.259551
26.300550
36.542416
52.075982
64.485669
78.259706
83.446503
85.836649
79.252720
67.603588
57.406425
43.074489
33.442974
22.970438
17.145872
12.138486
9.956956
8.711815
8.101463
7.697940
7.816553
7.566810
7.434487
7.346869
##ZVALUE=340
0.629425
0.590682
0.621676
0.650883
0.679493
0.667572
0.608563
0.640750
0.629425
0.744462
0.686646
0.607967
0.867844
0.720620
0.821948
0.911951
0.819564
0.781417
0.791550
0.832677
0.868440
0.720620
0.776649
0.752807
0.796914
0.849962
0.877976
0.888705
0.946522
0.992417
1.186728
1.047850
0.839829
0.766516
0.963807
1.022816
1.029968
1.137853
1.167655
1.171827
1.255870
1.223683
1.374483
1.267791
1.277924
1.572967
1.556873
1.599789
1.693964
1.850724
2.206564
3.014803
8.606911
43.278933
109.505653
280.925632
489.274859
843.016505
1015.837789
1015.837789
1015.837789
1015.837789
1015.837789
1004.205942
741.979480
396.059752
221.287608
89.884996
35.294890
11.152625
8.344650
8.041859
8.366704
9.498596
11.717677
17.256737
23.579597
36.098957
47.072768
62.695742
72.354674
79.439878
79.463720
75.393915
67.276955
53.286552
43.494701
31.304955
23.839474
16.253591
12.299418
9.339452
8.471608
7.818937
7.441640
7.113814
##ZVALUE=345
0.508428
0.653863
0.509620
0.686646
0.558496
0.781417
0.643730
0.565648
0.796914
0.831485
0.743866
0.717640
0.605583
0.658631
0.791550
0.589490
0.699759
0.811815
0.624657
0.692606
0.758767
0.668764
0.713468
0.711679
0.833869
0.838637
0.980496
0.880957
0.725985
0.809431
0.970960
0.925660
0.935793
0.767708
0.895858
0.860691
0.922680
0.976920
1.125932
0.930429
0.991821
1.164675
1.144409
1.224875
1.168847
1.153946
1.335740
1.459718
1.524687
1.627803
1.722574
1.835823
2.033710
2.138615
4.306436
24.938583
70.255399
192.677379
349.084735
655.683875
940.088034
1015.805006
1015.805006
1015.805006
1015.805006
1015.805006
861.428976
496.050715
287.104845
120.594501
52.782893
16.064644
9.568930
8.066893
7.763505
7.667542
8.507967
10.609627
14.035702
22.514462
31.354427
45.159459
54.804683
66.092610
72.221756
73.511600
70.684552
63.826442
54.184794
40.711761
31.491518
21.984577
16.486645
11.237860
9.419918
8.010864
##ZVALUE=350
0.550747
0.487566
0.659823
0.648499
0.639558
0.547767
0.549555
0.542998
0.669956
0.614524
0.642538
0.604987
0.818968
0.728965
0.760555
0.716448
0.585914
0.584722
0.631809
0.627637
0.571609
0.616908
0.776649
0.726581
0.664592
0.717640
0.843406
0.880957
0.715852
0.747442
0.781417
0.680685
0.742674
0.822544
0.743866
0.869632
0.807643
0.971556
0.948906
1.048446
0.980496
0.942945
1.112819
0.992417
1.091957
1.084805
1.201630
1.184940
1.250505
1.225471
1.418591
1.511574
1.572967
1.616478
1.802444
2.009869
2.617836
12.074709
38.947463
125.334859
246.471763
511.570573
771.531463
1015.805006
1015.805006
1015.805006
1015.805006
1015.805006
971.451998
593.375564
365.119576
166.236758
75.841546
21.381974
10.315776
7.482767
7.241964
6.804466
6.814599
7.732511
9.829998
14.305711
19.739866
28.769970
36.724806
49.488544
58.228970
65.426826
67.380667
65.483451
59.409738
48.917532
39.991736
28.451681
21.831989
14.972687
##ZVALUE=355
0.594854
0.648499
0.671744
0.628829
0.618696
0.570416
0.671744
0.604987
0.494719
0.542998
0.567436
0.688434
0.550747
0.717640
0.643730
0.636578
0.563860
0.547767
0.485778
0.746846
0.777841
0.566840
0.762939
0.716448
0.666976
0.653863
0.738502
0.903606
0.839829
0.925660
0.828505
0.703931
0.741482
0.913739
0.837445
0.925660
0.882745
0.907779
0.876784
0.959635
0.914931
0.843406
0.963807
1.008511
0.973940
1.107454
1.131892
1.214743
1.254678
1.157522
1.087785
1.154542
1.313686
1.467466
1.492500
1.718998
1.772642
1.959801
2.183914
6.124973
21.272898
84.780455
174.810886
379.322767
607.051849
970.656872
1015.805006
1015.805006
1015.805006
1015.805006
1015.805006
715.941787
461.967587
207.612514
98.566413
29.652715
12.228489
7.336736
6.998777
6.609559
6.411672
6.420612
7.130504
9.084940
11.696815
17.486811
23.769736
33.522844
41.850805
51.849484
57.825446
61.256886
59.904456
53.710938
47.560930
37.317872
##ZVALUE=360
0.570416
0.539422
0.547767
0.637770
0.599623
0.556707
0.591874
0.692606
0.626445
0.614524
0.547767
0.667572
0.592470
0.647902
0.626445
0.591874
0.656843
0.754595
0.777841
0.658631
0.599623
0.679493
0.703931
0.701547
0.739694
0.710487
0.848770
0.782609
0.634789
0.815988
0.791550
0.655651
0.848770
0.798702
0.808835
0.908971
0.782609
1.011491
0.944734
1.048446
0.986457
0.915527
0.891685
0.984669
1.003742
0.913739
0.978708
1.006722
1.054406
1.198649
1.266599
1.187921
1.350641
1.437664
1.453757
1.406670
1.414418
1.887679
1.763701
2.032518
2.226830
3.320575
10.487437
47.983527
111.584663
277.646780
464.485884
779.779553
1015.805006
1015.805006
1015.805006
1015.805006
1015.805006
813.084841
556.212664
290.292501
151.052475
50.494671
19.383430
7.645488
7.008910
6.499887
6.056428
6.077886
6.011724
6.213784
7.132888
9.940863
12.970567
19.733906
26.864409
37.217736
44.102669
52.134991
55.196881
54.459572
##ZVALUE=365
0.508428
0.502467
0.704527
0.713468
0.639558
0.668764
0.647902
0.533462
0.508428
0.613928
0.790954
0.748634
0.596642
0.499487
0.579953
0.752807
0.674725
0.858903
0.691414
0.614524
0.623465
0.735521
0.776649
0.729561
0.828505
0.642538
0.881553
0.723600
0.734925
0.809431
0.687838
0.681877
0.645518
0.776649
0.822544
0.927448
0.832677
0.896454
0.852942
0.862479
1.009703
0.851750
0.949502
0.941753
0.996590
0.959635
1.170635
1.077652
1.076460
1.007915
1.050830
1.229644
1.190901
1.265407
1.253486
1.317859
1.431704
1.440644
1.595616
1.856685
1.925826
1.920462
2.285838
2.444983
4.347563
22.050738
64.433813
184.653401
342.133045
639.614463
909.170508
1015.805006
1015.805006
1015.805006
1015.805006
968.990922
705.814958
394.981503
219.634771
81.100464
32.160878
9.440780
6.716847
6.223917
6.106496
5.704761
5.319715
5.213618
5.638599
6.284714
7.913709
11.953712
15.987754
23.495555
29.946566
38.829446
##ZVALUE=370
0.474453
0.661612
0.707507
0.669956
0.522733
0.618696
0.632405
0.711679
0.594854
0.600815
0.701547
0.524521
0.698566
0.646710
0.684857
0.652671
0.466704
0.734925
0.649691
0.575781
0.653863
0.789762
0.567436
0.686646
0.715852
0.815988
0.633597
0.632405
0.643730
0.645518
0.664592
0.741482
0.842810
0.754595
0.872612
0.892878
0.903606
0.884533
0.717640
0.802875
0.882745
0.788569
0.903606
0.968575
0.927448
0.961423
1.022816
0.801682
0.973940
0.955462
1.023412
1.002550
1.089573
1.156926
1.136661
1.143813
1.250505
1.332760
1.317859
1.333952
1.336932
1.478791
1.632571
1.806617
1.899600
2.121925
2.811551
12.121797
41.588545
136.742592
259.877443
509.333014
764.261484
1015.809774
1015.809774
1015.809774
1015.809774
1015.809774
813.169479
467.246771
265.070796
105.137825
48.156977
15.667677
7.557869
5.726814
5.525947
5.075932
4.965663
4.681945
4.711747
4.983544
5.607605
7.282495
10.034442
14.585853
##ZVALUE=375
0.496507
0.452995
0.450611
0.720620
0.604987
0.543594
0.727773
0.512600
0.558496
0.691414
0.704527
0.447631
0.683665
0.539422
0.801682
0.643730
0.736713
0.546575
0.579953
0.639558
0.728965
0.644922
0.650883
0.576973
0.701547
0.693798
0.762939
0.645518
0.781417
0.822544
0.726581
0.652671
0.925660
0.770688
0.849962
0.812411
0.820756
0.933409
0.743866
0.780821
0.604987
0.770688
0.712872
0.874996
0.902414
0.754595
0.872612
1.053810
0.881553
0.868440
0.976920
0.969768
1.105666
1.083612
0.983477
1.208782
1.015663
1.189709
1.315475
1.088977
1.280904
1.315475
1.231432
1.248717
1.600981
1.652837
1.764894
1.942515
2.324581
6.230474
21.556616
80.354810
174.652934
398.162603
634.287000
979.784727
1015.813947
1015.813947
1015.813947
1015.813947
920.305848
572.401881
368.440747
181.367993
90.501904
28.272867
10.558963
5.593896
5.176663
5.011559
4.606843
4.506707
4.378557
4.313588
4.154444
4.961491
##ZVALUE=380
0.542998
0.580549
0.473857
0.376701
0.474453
0.580549
0.507832
0.592470
0.596642
0.483990
0.473857
0.518560
0.491738
0.454783
0.449419
0.401735
0.480413
0.634789
0.639558
0.574589
0.640750
0.554919
0.562668
0.746846
0.532866
0.663996
0.626445
0.552535
0.492930
0.694990
0.625849
0.646710
0.654459
0.636578
0.655651
0.645518
0.710487
0.559688
0.815988
0.817776
0.809431
0.789762
0.769496
0.733733
0.751615
0.667572
0.685453
0.797510
0.767708
0.940561
0.778437
0.855923
0.894666
0.865459
0.853539
0.853539
0.906587
0.875592
0.918508
1.093745
1.110435
1.045465
1.090765
1.197457
1.131892
1.222491
1.430511
1.779795
1.695752
2.104640
2.136827
3.400445
11.436939
55.016875
129.534602
312.310457
520.004630
845.348835
1015.779972
1015.779972
1015.779972
1015.779972
1013.778448
742.957592
505.221486
250.158906
129.990578
44.695735
17.337799
6.250739
5.163550
4.530549
4.361868
4.031658
3.997684
3.925562
##ZVALUE=385
0.486970
0.532866
0.657439
0.533462
0.424981
0.531673
0.655651
0.403523
0.633597
0.399947
0.484586
0.583529
0.444651
0.620484
0.633597
0.457764
0.564456
0.550747
0.516772
0.608563
0.569820
0.537634
0.529885
0.634789
0.649691
0.659823
0.657439
0.557899
0.506639
0.747442
0.627637
0.664592
0.676513
0.549555
0.661612
0.520945
0.703931
0.713468
0.756979
0.803471
0.605583
0.671744
0.721812
0.764728
0.692606
0.697970
0.580549
0.778437
0.671744
0.798702
0.618696
0.725985
0.711679
0.790954
0.735521
0.730753
0.822544
0.909567
0.942945
1.006722
0.965595
1.047850
1.013875
1.095533
1.217723
1.138449
1.196861
1.245737
1.342893
1.627803
1.837611
1.938939
2.165437
2.292991
5.465746
31.327605
83.066821
214.599967
390.020609
718.773603
981.294513
1015.805006
1015.805006
1015.805006
1015.805006
901.279449
645.193458
359.398723
206.274986
84.638000
33.882856
8.436441
4.929900
4.178882
4.046559
4.148483
##ZVALUE=390
0.525713
0.638962
0.661612
0.520945
0.447631
0.431538
0.551939
0.420809
0.441670
0.510812
0.604987
0.388622
0.651479
0.615716
0.634789
0.626445
0.709891
0.609756
0.520945
0.443459
0.589490
0.583529
0.539422
0.549555
0.485778
0.581741
0.594854
0.582933
0.471473
0.671744
0.621676
0.605583
0.703931
0.575781
0.577569
0.598431
0.806451
0.538826
0.599623
0.658631
0.550747
0.627637
0.741482
0.697970
0.659823
0.833869
0.688434
0.745654
0.994802
0.683665
0.800490
0.881553
0.801682
0.699759
0.681877
0.802875
0.718832
0.905991
0.728965
0.811815
0.971556
0.867844
0.935793
0.806451
0.945926
1.075864
1.059771
1.156926
1.408458
1.584888
1.560450
1.781583
1.893640
1.832843
1.971722
2.119541
3.011823
16.403794
52.342415
161.985755
309.877992
602.970719
856.347680
1015.805006
1015.805006
1015.805006
1015.805006
1013.153791
809.502602
496.955514
290.779471
119.810700
56.016445
16.263723
6.303787
4.246831
##ZVALUE=395
0.461936
0.456572
0.508428
0.500679
0.501871
0.431538
0.701547
0.517964
0.530481
0.457764
0.494719
0.605583
0.546575
0.411868
0.489950
0.518560
0.612736
0.459552
0.466704
0.482798
0.478625
0.480413
0.395775
0.586510
0.604987
0.542998
0.662804
0.696778
0.661612
0.601411
0.645518
0.574589
0.627637
0.607967
0.456572
0.582933
0.739694
0.506639
0.667572
0.587702
0.788569
0.565648
0.583529
0.831485
0.569820
0.620484
0.771880
0.555515
0.789762
0.710487
0.650883
0.599623
0.759959
0.758767
0.801682
0.814795
0.733733
0.641942
0.818968
0.873804
0.802875
0.828505
0.864863
1.014471
0.966787
1.028776
1.014471
1.234412
1.177788
1.389980
1.486540
1.547933
1.552701
1.642704
1.603961
1.602769
1.589656
1.986623
2.299547
9.195805
35.321712
123.809576
236.847997
458.265543
692.198873
1008.371711
1015.811563
1015.811563
1015.811563
1015.811563
964.131951
607.518554
379.260778
169.632435
81.352592
25.788546
##ZVALUE=400
0.485778
0.404716
0.483990
0.475645
0.494719
0.482798
0.529885
0.390410
0.710487
0.589490
0.467896
0.566840
0.542998
0.502467
0.368953
0.522733
0.531673
0.534654
0.555515
0.471473
0.541806
0.594854
0.608563
0.482798
0.456572
0.568628
0.610948
0.555515
0.717640
0.760555
0.586510
0.642538
0.523925
0.760555
0.514984
0.667572
0.713468
0.486970
0.609756
0.637770
0.608563
0.579953
0.712872
0.692606
0.575781
0.700951
0.747442
0.665784
0.717640
0.638962
0.707507
0.821948
0.690818
0.716448
0.735521
0.837445
0.878572
0.741482
0.763535
0.947714
0.688434
0.912547
0.808835
0.950694
0.931621
1.024604
1.029968
1.098514
1.109838
1.212955
1.264811
1.407862
1.320839
1.543760
1.421571
1.448989
1.563430
1.484752
1.774430
1.585484
1.908541
4.958510
17.699599
68.877935
148.309469
341.494679
551.228523
881.047845
1015.810966
1015.810966
1015.810966
1015.810966
1015.810966
736.007690
493.072867
251.363516
##END
