##TITLE=
##FORMAT=SPECTACLE-ASCII V-1.2
##DATA TYPE=ULTRAVIOLET SPECTRUM
##SECOND TYPE=ULTRAVIOLET SPECTRUM
##DATE=09/27/17
##TIME=12:30:38
##SPECTROMETER/DATA SYSTEM=SPECTACLE
##XUNITS=NM EM
##YUNITS=ENERGY
##YFACTOR=1
##FIRSTX=220
##LASTX=410
##NPOINTS=96
##3DDATA=Equidistant
##ZUNITS=NM EX
##FIRSTZ=210
##LASTZ=400
##ZPOINTS=39
##XYDATA=(Y..Y)
##ZVALUE=210
3.109574
3.324747
3.609657
3.188848
3.180504
3.838539
4.022717
3.700852
4.288554
3.907681
3.488660
3.728867
4.224777
4.423857
4.210472
4.539490
4.392862
4.774928
5.087852
5.977750
6.029606
6.219745
6.774664
7.426739
7.119775
6.659627
8.059740
7.706881
8.247495
9.095669
7.631779
9.257793
9.148717
8.828640
10.188818
9.830594
9.123683
10.703802
9.618998
10.126829
10.924935
9.986758
10.463595
11.047721
12.125969
10.621548
12.576580
10.218620
11.510849
12.177825
12.805462
12.107491
13.602972
13.422966
11.060834
12.996793
14.240742
13.170838
13.963580
13.247728
12.231469
14.111996
14.099479
14.143586
13.520718
14.754534
15.464425
17.006993
19.804835
23.224950
25.981665
31.032562
35.785437
39.887428
41.914582
44.728518
45.099854
47.000647
45.897961
44.534802
38.621426
40.754676
32.866597
29.201508
22.480488
20.569563
16.364455
16.127825
13.710856
13.789535
13.431907
12.117624
13.641715
13.084412
12.901425
12.471676
##ZVALUE=215
8.820891
7.780790
7.630587
7.041693
5.856752
5.611777
5.515814
5.589724
5.897880
6.234646
6.026626
5.322695
6.263852
5.837679
4.711747
5.442500
5.574822
5.284548
5.574822
6.435513
6.280541
6.331801
6.635785
7.005930
7.390976
8.109808
7.586479
7.493496
8.816719
8.517504
8.670688
9.557605
9.368658
9.047985
9.912848
9.539723
10.714531
10.009408
10.961890
10.134578
10.076761
11.539459
11.438727
11.123419
10.762811
12.203455
11.285543
10.691881
11.341572
12.267828
11.332631
10.802746
13.099909
12.192726
11.585951
12.405515
12.381673
12.096763
12.450814
12.510419
12.104511
12.292862
13.831854
13.005733
13.521910
14.721751
15.375614
16.587973
19.289851
20.660758
23.059845
28.616786
30.997992
34.794807
35.004616
41.235685
38.862824
38.240552
38.587451
35.967827
33.129454
29.929876
27.091503
23.822784
19.223690
16.466975
16.623735
13.820529
12.556911
12.636781
12.540817
12.725592
12.147427
10.934472
11.812449
12.875795
##ZVALUE=220
25.074482
27.343631
28.794408
30.942559
29.225945
24.117827
19.754767
14.567971
11.927485
11.040568
11.296868
11.550784
12.279749
9.980798
9.789467
8.794665
7.684827
6.836653
6.968975
6.553531
6.986856
6.614923
7.217526
6.981492
7.480979
7.512569
7.929802
9.502769
8.295774
9.897947
9.294748
9.855628
10.521412
11.050701
10.121465
9.955764
11.191964
9.892583
10.548830
10.958910
11.918545
12.281537
12.222528
12.446642
12.028813
11.890531
11.825562
11.900663
11.984706
12.630820
12.849569
13.774633
13.884902
14.023781
12.355447
14.831424
14.391541
14.536977
14.316440
15.919805
14.130473
15.928745
15.209913
16.227961
14.302731
15.285611
15.465617
18.205643
19.648671
21.923780
25.953650
30.375719
31.905770
35.820603
39.863586
41.164756
40.764809
39.407611
37.818551
35.323501
33.334494
29.385686
27.590990
24.248958
21.602511
20.623803
17.728806
16.676784
13.869405
15.158653
15.016794
13.845563
15.933514
14.437437
14.695525
14.782548
##ZVALUE=225
47.152638
49.875975
70.494413
96.111894
107.227564
113.638639
105.127692
86.091757
66.184998
49.406886
29.996634
23.268461
24.740696
24.735928
25.200844
23.888946
20.966530
16.277432
16.167760
11.131763
8.560419
7.852912
7.550716
7.340908
7.245541
8.064508
8.414984
8.876920
8.935928
9.659529
9.566545
8.560419
10.155439
10.331869
9.782910
11.245608
10.229945
10.395646
10.984540
11.201501
10.949969
12.983680
11.054873
11.491776
10.693669
12.274981
13.026595
13.017654
13.104677
13.773441
13.608932
13.003945
14.001727
14.170408
12.742877
15.532970
14.832616
15.130639
14.793873
16.035438
16.171932
15.663505
16.272664
17.675757
18.174648
18.685460
19.222498
19.389987
21.159649
24.500489
26.772618
29.418468
31.007528
33.484697
36.039948
37.358999
37.541986
35.369992
33.120513
31.137466
30.960441
25.634766
27.056932
24.738908
22.663474
22.304654
20.816922
17.219782
19.801855
18.880963
17.142892
16.843677
17.537475
16.163588
17.729998
17.980933
##ZVALUE=230
42.637587
46.429634
80.408454
138.086677
189.745426
236.922503
264.047980
266.399980
235.830545
191.868544
143.913627
88.666677
64.521432
44.476986
45.165420
45.793653
48.004985
49.770474
42.308569
37.129521
26.499629
20.038486
15.188456
10.874867
8.306503
7.598996
9.752512
9.301901
8.689761
9.976625
9.265542
9.789467
9.392500
9.339452
10.804534
10.783672
9.955764
11.268854
11.474490
10.978580
11.064410
12.191534
12.440681
13.175607
12.501478
13.525486
12.697577
13.080835
14.311671
14.832616
14.759898
15.030503
15.697479
16.618967
17.484426
16.557574
17.391443
18.281937
18.454790
18.632412
19.183755
19.759536
17.914772
20.281672
21.671653
20.793676
23.522973
21.426678
23.865700
28.825998
31.602979
33.674836
36.852956
40.150881
42.125583
40.741563
44.245720
40.469766
42.763948
37.928820
36.688447
33.733845
33.464432
32.883883
30.344725
28.722882
28.558969
26.194453
25.161505
26.132464
25.391579
25.514960
24.074912
24.528503
23.456812
22.355914
##ZVALUE=235
19.356608
20.453930
44.052601
103.665590
169.330835
274.964571
354.097486
472.515821
520.817637
537.259579
488.444567
407.592654
283.553004
197.743773
117.176771
86.823702
71.723461
75.617433
83.838701
79.845786
77.997446
65.198541
51.682591
38.676858
27.974844
18.288493
14.107823
11.162758
11.600852
10.898709
11.164546
11.624694
11.787415
12.464523
12.255907
12.896657
12.544990
13.041496
12.659431
14.435649
14.483929
14.603734
14.123917
14.295578
14.657974
15.094876
14.653802
15.502572
16.878843
15.496612
15.704632
17.377734
17.154813
19.252896
19.148588
20.000935
22.102594
22.752881
22.086501
21.107793
21.882653
24.359822
25.518537
24.317503
25.552511
27.065873
28.864741
30.299425
32.429695
34.955740
39.376616
42.352676
45.291781
46.814680
50.941706
52.017570
53.206682
53.095818
53.384900
51.862001
50.195456
46.579838
46.073794
42.490959
41.706562
42.893887
38.560629
38.737655
36.926866
35.805702
36.480427
37.004948
36.527514
34.809709
36.269426
34.584403
##ZVALUE=240
3.153682
3.975630
8.057952
28.417706
66.299438
163.266659
278.772712
490.163565
672.876835
839.501023
983.473659
996.099710
880.495906
765.734911
549.270511
389.344692
224.906802
152.499676
110.387802
104.279518
108.221769
113.494992
111.991763
103.199482
87.793469
65.616965
49.252510
35.831928
25.176406
17.746687
15.437603
14.556646
13.819933
13.760924
13.662577
13.811588
14.725924
14.568567
13.296604
13.772845
13.442636
13.423562
14.799833
14.460683
16.156435
16.600490
15.232563
17.654896
15.659928
18.553734
18.907785
18.299818
20.674467
20.101666
20.329952
20.355582
22.036433
23.114681
22.979975
24.486780
24.950504
25.870800
28.095841
28.764606
30.002594
29.835701
30.437708
32.921433
36.789775
39.324760
42.567849
47.649741
49.541593
53.658485
54.828525
57.621002
61.546564
61.077476
55.877566
54.443479
54.867864
51.918626
52.334666
50.378442
48.430562
47.050714
45.356750
45.664907
45.136809
42.618513
42.502880
42.182803
42.728782
42.912960
42.768717
41.143894
##ZVALUE=245
3.064871
2.598763
2.748966
3.584623
5.957484
21.155477
49.021840
137.962699
256.851912
420.720577
713.106990
941.341519
1015.805006
1015.805006
1015.805006
1015.805006
802.304745
590.077639
355.563760
224.449635
134.069920
108.892918
118.984580
124.531984
130.027533
122.179985
116.718411
94.372630
75.693727
52.645802
39.080977
25.999546
18.558502
13.599992
13.134480
12.821555
13.294816
12.703538
12.580752
11.965632
12.651682
12.848973
12.938976
13.495684
12.763739
13.383627
13.857484
15.532970
14.825463
15.011430
14.399886
16.452670
15.926957
16.503930
18.517971
17.522573
18.551946
19.473433
18.947721
21.796823
21.061897
22.052526
22.737980
24.680495
24.911761
26.534796
27.476549
29.613972
31.489730
33.527613
37.902594
39.077997
42.151809
46.314001
47.442913
49.293637
51.667690
49.391985
49.375892
47.431588
48.647523
45.616627
47.574639
44.097900
45.787692
45.467615
44.076443
45.615435
44.097900
42.218566
40.212870
43.598413
42.010546
41.547418
42.203665
41.543841
##ZVALUE=250
2.462864
2.624989
2.383590
2.792478
2.795458
3.204942
4.451871
10.354519
44.568777
96.930861
233.784914
407.288671
609.826446
916.483998
1015.805006
1015.805006
1015.805006
1015.805006
1015.805006
761.759877
527.037978
335.230827
174.334645
119.551420
109.799504
120.630860
136.146545
141.035914
135.492682
124.970675
105.952621
79.122782
60.335994
37.855506
26.640892
17.176867
14.267564
11.533499
11.220574
11.050701
11.924505
11.244416
10.711551
12.161732
11.573434
12.300611
11.689663
12.484789
14.006495
12.258887
13.168454
13.950467
13.376474
15.125871
14.427900
15.973449
15.941858
16.802549
15.730858
18.048882
17.436743
19.422770
19.394755
19.845963
20.747781
21.570921
21.988750
23.575425
26.537776
29.267669
30.718446
32.284856
35.264492
37.415624
38.680434
40.749907
41.112900
42.316914
41.966438
40.694475
40.857792
41.177869
40.652752
39.187670
38.980842
38.780570
37.793517
38.309693
38.249493
37.919879
38.513541
38.961768
38.283467
36.953688
38.204789
40.019751
##ZVALUE=255
2.413988
2.315640
2.281666
2.480745
2.274513
2.446771
2.956986
2.980828
3.335476
7.866621
34.865737
81.260800
169.993639
359.819531
559.218526
879.869461
1015.805006
1015.805006
1015.805006
1015.805006
1015.805006
960.575938
601.456761
372.166634
190.937519
125.800967
100.139976
104.796886
125.145912
139.485598
144.827962
139.973760
131.780505
103.599429
82.286596
56.443810
39.647818
24.650693
17.534494
11.560917
10.318756
10.495782
9.948611
11.303425
10.258555
11.657476
11.228919
9.976625
11.127591
10.762811
11.286736
11.671782
11.585951
12.991428
13.559461
13.587475
15.138984
14.382601
15.244484
15.390515
14.782548
16.448498
15.957952
18.308759
17.455816
19.105673
20.435452
21.167994
22.431612
24.067760
26.920438
27.954578
29.715896
31.679869
33.234954
33.962727
34.448504
33.219457
34.822822
36.170483
34.897923
33.586621
34.589767
35.080910
34.614801
34.661889
36.026835
35.382509
35.810471
35.482645
35.297871
36.134720
35.123825
35.745502
35.732985
35.054684
##ZVALUE=260
1.855493
1.890659
2.108812
2.141595
2.050996
2.018809
2.473593
2.241731
2.717972
2.765656
3.098845
3.743768
11.898875
49.987435
114.188790
281.651020
474.687815
797.683597
1015.675664
1015.675664
1015.675664
1015.675664
1015.675664
1015.675664
832.492709
563.463569
308.865905
180.137753
102.385879
92.107654
102.941990
126.277804
141.352415
152.482986
143.561959
130.010843
111.251473
80.241561
60.164928
37.675500
26.821494
17.453432
13.834834
10.981560
9.918809
10.641813
10.546446
10.545850
10.861754
11.742711
11.123419
12.079477
12.071729
12.944937
12.510419
13.351440
13.904572
13.971925
14.065504
14.674664
15.269518
15.555620
17.271638
16.337633
17.377734
17.500520
18.881559
20.359755
22.041798
23.207664
25.240779
25.764704
27.702451
29.188991
29.881597
31.027794
32.445788
31.747818
32.387972
31.145811
31.684637
32.653809
31.646490
31.148791
31.274557
30.606985
31.939745
32.622814
32.518506
32.406449
31.493902
31.921864
31.674504
33.333898
33.382773
34.794807
##ZVALUE=265
2.163649
2.176762
2.019405
1.907945
2.361536
2.252460
2.203584
2.393723
2.338886
2.591610
2.609491
2.907515
2.930760
3.957748
8.445978
25.659800
111.333728
249.064565
551.276803
886.468887
1015.805006
1015.805006
1015.805006
1015.805006
1015.805006
1015.805006
1015.805006
760.003924
489.268899
249.409676
138.993859
82.829595
85.847974
113.737583
132.597685
152.905583
153.833628
147.301555
134.550929
107.042789
83.917975
58.057904
41.027665
25.548935
17.603636
13.099909
11.101961
10.969639
10.851622
11.546612
11.779666
12.224913
13.002753
12.882948
13.317466
13.419986
13.983846
14.582872
14.770627
14.690757
15.006661
15.593767
16.043782
16.956925
17.320514
17.111897
18.631816
19.702911
21.403432
22.238493
23.873448
24.746656
26.110411
27.738810
28.311610
29.226542
29.257536
29.789805
29.950738
28.940439
28.461814
29.859543
29.070973
29.997826
30.408502
29.349923
29.448867
29.114485
29.981732
30.243993
30.330420
30.515790
30.470490
29.943585
29.490590
30.963421
##ZVALUE=270
2.078414
2.209544
1.860857
1.989603
1.945496
2.107620
2.007484
2.325773
2.048612
1.991987
2.341866
2.298951
2.603531
2.855659
2.959967
3.098845
5.321503
12.114644
53.191781
129.054785
356.111526
651.783943
1015.805006
1015.805006
1015.805006
1015.805006
1015.805006
1015.805006
1015.805006
1008.093953
713.848472
356.602669
196.131468
91.348886
71.833730
90.318918
109.547973
135.731697
149.888992
157.704949
149.512887
134.604573
113.192797
82.253814
61.404705
37.641525
27.600527
18.658638
14.809966
12.414455
12.516975
12.353659
12.452602
12.897849
13.276935
13.528466
14.545918
13.839602
14.891624
14.744997
15.313625
15.953779
15.980601
16.504526
16.778708
17.017722
18.237829
19.033551
19.499660
21.087527
21.773577
23.510456
24.898648
26.970506
26.892424
26.746988
27.390718
27.911663
27.703643
26.717782
26.900768
27.010441
27.458668
27.821660
27.809739
27.962923
26.720762
27.595758
27.402639
28.000474
28.152466
28.560758
28.100610
27.632713
28.560758
27.337670
##ZVALUE=275
1.840591
1.757741
1.629591
1.784563
1.710653
1.625419
1.726747
1.666546
1.859665
2.085567
1.872778
1.932979
2.161860
2.164841
2.247691
2.740622
2.817512
2.932549
3.208518
6.979704
24.938583
72.539449
224.318504
432.376862
846.206546
1015.805006
1015.805006
1015.805006
1015.805006
1015.805006
1015.805006
1015.805006
956.409574
505.001545
284.256935
116.898417
69.197416
64.804554
83.346963
109.360814
131.133795
148.141980
155.761838
147.191882
133.045912
105.923414
84.873438
59.758425
43.470860
27.736425
20.584464
15.890598
13.399720
12.655854
12.599826
13.301969
13.957620
14.931560
14.501810
14.941692
14.264584
16.143918
16.107559
16.084909
17.133951
17.453432
17.842650
19.195676
19.143820
20.677447
21.751523
23.109913
23.933649
26.201606
26.245713
26.532412
26.129484
26.406646
27.383566
26.182532
26.308894
26.420951
26.219487
26.541948
26.822686
26.549697
26.702881
26.764870
26.721954
26.335716
26.652813
26.734471
26.577711
26.772618
26.834607
25.987625
##ZVALUE=280
1.720786
1.691580
1.887679
1.609921
1.802444
1.799464
1.968741
1.814961
1.850724
1.950860
1.770854
2.049804
2.177954
2.254844
2.141595
2.318621
2.428889
2.717972
2.889633
3.174543
3.579855
4.566908
20.258427
62.652826
201.698542
389.102697
761.505961
1015.932560
1015.932560
1015.932560
1015.932560
1015.932560
1015.932560
1015.932560
1015.932560
673.187971
399.593711
172.179937
87.425709
50.720572
59.781671
86.065531
109.340549
134.886503
147.970915
151.848793
148.316622
129.846931
112.127662
84.255934
62.712431
43.025613
30.916929
20.801425
17.062426
14.966726
14.059544
14.666915
14.604926
15.455484
15.480518
16.469955
17.102957
17.102957
17.421842
18.826723
19.048452
19.060969
20.721555
20.967722
22.069812
22.713542
23.640990
24.723411
24.968982
26.388764
25.882721
26.643872
26.637912
25.925636
26.697516
26.541948
25.766492
25.847554
26.493669
25.788546
26.288629
26.266575
25.597811
26.040673
26.386976
25.497675
25.909543
26.177764
26.067495
25.574565
##ZVALUE=285
1.529455
1.444817
1.467466
1.500845
1.575947
1.673698
1.895428
1.494884
1.525879
1.679659
1.722574
1.656413
1.771450
1.747608
1.903772
2.121925
2.176762
2.208948
2.208948
2.544522
2.627969
2.898574
3.230572
3.436804
9.557605
32.039881
112.937689
236.900449
539.875627
910.257697
1015.802622
1015.802622
1015.802622
1015.802622
1015.802622
1015.802622
1015.802622
947.860479
589.391589
278.283954
138.013959
55.573583
42.417645
57.619810
78.427792
106.758475
126.608610
140.886903
148.605704
144.371986
131.673813
109.137893
90.171695
62.195659
45.852661
30.491948
23.119450
17.707944
16.502738
15.704632
15.615821
16.117692
17.020702
17.702579
17.286539
17.936826
18.805861
19.562840
20.489693
21.634698
22.150874
23.506880
23.852587
24.338961
25.449991
25.419593
25.576949
25.491714
25.618672
25.678873
25.841594
25.557876
25.867820
25.863647
25.739670
25.145411
24.641752
25.182962
25.208592
25.427938
24.875998
24.725795
23.555756
25.187731
25.181770
24.320483
##ZVALUE=290
1.281500
1.441836
1.510978
1.602769
1.468658
1.585484
1.509786
1.533628
1.524687
1.790524
1.809597
1.640916
1.759529
1.797676
1.787543
1.959801
1.955628
1.985431
2.412796
2.260804
2.194643
2.295971
2.578497
2.924800
3.448725
3.688931
4.438758
18.926859
56.971908
179.014802
349.921584
758.956671
1015.805006
1015.805006
1015.805006
1015.805006
1015.805006
1015.805006
1015.805006
1015.805006
784.001946
384.799838
196.450949
70.705414
37.111640
38.628578
51.501989
77.566504
96.482635
121.215582
136.217475
144.777894
142.609477
127.973557
111.025572
85.304976
65.921545
44.787526
33.495426
24.130940
20.438433
17.613769
16.866922
17.225742
17.753839
18.090606
18.622875
19.676685
20.073652
21.550655
21.708608
23.166537
23.035407
24.064779
25.244951
25.474429
25.487542
25.037527
25.375485
25.209785
25.089979
25.249720
24.849772
25.912523
25.285482
24.742484
25.335550
25.503635
25.835633
25.068521
25.231838
24.210811
24.167895
24.587512
23.616552
24.076700
##ZVALUE=295
1.156926
1.434684
1.271963
1.254678
1.383424
1.368523
1.470447
1.540780
1.564622
1.601577
1.389980
1.446605
1.570582
1.627803
1.657605
1.763701
1.745820
1.735687
1.584888
1.671910
1.742840
2.126694
2.378821
2.314448
2.553463
2.743602
3.173947
3.298521
3.969669
6.394982
34.958720
100.145936
234.207511
563.025475
938.650966
1015.725732
1015.725732
1015.725732
1015.725732
1015.725732
1015.725732
1015.725732
1012.679935
540.364981
286.984444
101.795793
45.722723
27.153492
33.183694
50.532818
68.912506
94.743967
113.253593
132.422447
138.464570
137.015581
126.188993
104.529858
86.612701
61.642528
47.695637
33.209920
26.018620
20.586848
18.725991
17.897487
18.140674
18.639565
19.289851
20.187497
21.097660
21.879673
22.393465
23.937821
24.094582
24.601817
24.218559
24.571419
24.416447
25.012493
24.855733
24.414659
24.848580
24.640560
24.222732
24.715662
24.503469
25.131702
24.436712
24.589896
24.152994
23.898482
24.378896
24.488568
24.984479
23.592710
##ZVALUE=300
1.287460
1.154542
1.169443
1.249909
1.181960
1.492500
1.364946
1.250505
1.572967
1.447797
1.568794
1.554489
1.413822
1.397729
1.538992
1.615882
1.630783
1.588464
1.815557
1.706481
1.781583
1.804829
2.093911
1.942515
2.039671
2.144575
2.422929
2.776980
2.761483
3.048778
3.240705
3.819466
13.615489
48.240423
170.532465
339.708924
728.994608
1015.805602
1015.805602
1015.805602
1015.805602
1015.805602
1015.805602
1015.805602
1015.805602
911.797881
439.443588
215.711594
69.555640
30.289888
23.701787
30.682683
47.236681
62.866807
86.932778
106.865764
125.913620
134.011507
131.459832
124.521852
105.278492
87.497830
63.448548
49.069524
34.826994
27.336478
21.507740
20.251870
19.396544
20.070672
21.168590
21.275878
21.846890
22.837520
23.214817
23.902655
24.081469
24.349689
24.212599
24.567842
25.174618
24.724603
24.741888
24.799705
24.896860
24.480820
24.425983
24.500489
24.678707
24.479628
23.663640
23.644567
24.363995
23.674965
24.229884
23.404956
##ZVALUE=305
1.257658
1.275539
1.160502
1.208782
1.241565
1.133680
1.193881
1.356602
1.395941
1.473427
1.446605
1.410842
1.392961
1.477599
1.316667
1.410842
1.511574
1.510978
1.407862
1.484752
1.641512
1.667738
1.647472
1.809597
1.849532
1.998544
1.969934
2.206564
2.119541
2.505779
2.775788
3.025532
3.014803
3.532767
6.924868
24.355650
104.562640
238.893628
555.571914
887.488723
1015.805006
1015.805006
1015.805006
1015.805006
1015.805006
1015.805006
1015.805006
1011.000872
580.986738
322.301984
121.766925
48.429966
20.223856
21.668673
31.182766
42.721629
64.790845
81.860423
105.031729
118.861794
127.651691
126.374960
116.839409
103.164911
81.344843
64.821839
46.717525
36.666989
27.203560
23.165941
21.467805
21.484494
21.671653
22.781491
23.125410
23.304820
24.163723
23.811460
23.865700
24.778843
24.705529
24.450421
25.484562
24.379492
25.139451
25.525689
25.303960
24.735928
25.122762
25.278926
24.855733
24.440885
24.295449
24.201870
24.070740
23.620725
##ZVALUE=310
0.944734
0.969768
1.042485
1.179576
1.014471
1.271963
1.022816
1.106858
1.207590
1.142621
0.996590
1.103878
1.160502
1.129508
1.172423
1.055598
1.211762
1.392961
1.493692
1.385808
1.242757
1.304746
1.375675
1.589656
1.465678
1.640916
1.722574
1.956820
1.922846
2.057552
1.821518
2.131462
2.235770
2.502799
2.728701
3.113747
3.963709
10.933876
58.061481
142.635703
364.352465
646.080971
1015.723944
1015.723944
1015.723944
1015.723944
1015.723944
1015.723944
1015.723944
1015.723944
734.950900
449.263453
196.345448
90.346932
27.948618
17.194748
20.788908
27.378798
41.242838
54.440498
77.209473
93.589425
110.609531
119.039416
121.789575
115.140676
100.942850
84.554553
63.058734
48.997998
35.332441
29.177666
25.008917
22.845864
22.975802
22.488832
22.445917
23.282766
23.441911
24.083853
23.906827
24.221539
24.946928
24.221539
25.181770
24.951696
24.680495
25.359988
24.770498
24.876595
24.641752
24.661422
24.824739
24.481416
24.151802
23.806691
##ZVALUE=315
1.080632
1.031756
1.060963
1.041889
1.055598
1.139641
1.164675
1.109838
1.190901
1.095533
1.138449
1.302958
1.364946
1.333952
1.168847
1.246929
1.379848
1.299977
1.286864
1.305938
1.439452
1.401901
1.517534
1.546741
1.458526
1.761913
1.610518
1.578927
1.794696
1.740456
1.841784
1.941919
2.010465
2.097487
2.416968
2.677441
2.476573
3.102422
3.339648
7.020831
25.512576
110.584497
245.574713
568.504930
925.575495
1015.805006
1015.805006
1015.805006
1015.805006
1015.805006
1015.805006
1015.805006
971.181989
531.448722
290.355682
104.194880
42.290688
17.091632
15.672445
19.905567
25.593638
39.838552
52.231550
71.544647
88.370442
106.192827
114.521980
115.773678
111.130476
95.755458
82.428455
62.671900
50.483942
36.843419
30.500889
25.779605
23.814440
23.353696
23.266673
23.544431
23.824573
24.108887
25.044680
25.024414
25.439858
25.032759
25.507808
25.625825
25.364757
25.248528
25.070906
25.484562
24.689436
24.610758
24.273992
23.794770
##ZVALUE=320
0.938773
0.840425
0.954866
0.860691
0.836849
0.868440
0.937581
0.822544
0.940561
0.815988
0.967979
0.976920
0.861883
0.910759
0.935793
0.885725
1.016855
1.010895
1.129508
0.971556
1.077652
1.183748
1.205802
1.191497
1.394749
1.302958
1.337528
1.450777
1.379848
1.556873
1.350641
1.551509
1.642704
1.900792
1.963973
2.144575
2.147555
2.132654
2.345443
2.593994
2.869964
3.900528
11.438727
60.845613
161.604881
436.061621
736.541748
1015.616655
1015.616655
1015.616655
1015.616655
1015.616655
1015.616655
1015.616655
1015.616655
700.276494
400.874615
167.963505
72.809458
21.946430
14.394522
14.617443
17.489791
24.381876
33.517480
50.107837
64.374804
83.799958
98.227859
109.771490
111.279488
106.421709
96.032619
78.479648
64.408779
47.826767
37.889481
30.313730
26.215911
23.990870
23.379922
24.018884
23.878813
24.054646
24.582744
24.353862
24.699569
24.418831
25.065541
24.391413
24.095774
24.281740
24.597645
24.214983
23.721457
23.858547
##ZVALUE=325
0.982881
0.968575
1.015663
0.945926
1.040697
1.132488
0.905991
0.855923
0.909567
0.859499
0.924468
1.106858
0.966787
1.232624
1.174808
1.193881
1.232624
1.174808
1.227856
1.244545
1.168847
1.184940
1.285672
1.242757
1.292825
1.418591
1.439452
1.522899
1.407862
1.494884
1.694560
1.540780
1.755953
1.809597
1.794696
1.714826
1.907945
2.088547
2.230406
2.277493
2.372861
2.848506
3.163815
3.404617
6.235838
37.806630
106.090903
293.531418
532.967448
979.281664
1015.805006
1015.805006
1015.805006
1015.805006
1015.805006
1015.805006
1015.805006
861.513615
527.758598
240.330696
110.874772
31.791925
15.227795
13.468862
14.261603
17.495751
23.535490
34.816861
47.652721
66.429973
79.941750
96.673965
105.402470
107.237697
101.527572
87.771416
76.224804
59.084892
47.331452
35.390854
30.096769
26.206970
24.742484
24.495721
24.571419
24.415851
23.702979
24.097562
24.267435
24.382472
24.288893
23.997426
23.959875
23.866892
23.934841
24.011731
##ZVALUE=330
1.008511
0.978708
0.827909
0.847578
0.932813
1.075864
1.012683
0.999570
1.095533
1.019835
0.889897
0.945926
1.057982
0.992417
0.909567
1.043677
1.055598
1.096725
0.860691
1.155734
1.112819
1.021624
1.160502
1.182556
1.144409
1.156926
1.292825
1.221895
1.386404
1.464486
1.552701
1.412630
1.563430
1.611710
1.743436
1.659989
1.703501
1.863837
1.920462
1.777411
2.132654
2.264977
2.425909
2.702475
3.088713
3.305674
4.315972
17.254949
55.115819
184.868574
364.493728
757.467747
1015.782952
1015.782952
1015.782952
1015.782952
1015.782952
1015.782952
1015.782952
1015.782952
699.730515
325.403810
164.027810
57.547688
22.796988
13.647676
13.708472
15.158653
17.954707
24.751425
32.730699
46.613812
60.513616
80.633759
92.624426
100.143552
101.027489
95.207691
86.004734
69.997907
58.082938
44.248700
37.166476
30.591488
27.325749
25.000572
24.256706
23.859739
23.768544
23.438931
23.454428
23.466945
22.889972
23.331642
23.123622
22.959709
##ZVALUE=335
0.846982
0.778437
0.815988
0.707507
0.962615
0.718832
0.919700
0.964999
0.984669
1.013875
1.032948
1.001954
0.970960
0.983477
0.898838
0.913739
1.139641
1.065731
1.025796
1.041889
1.102686
1.217723
0.958443
1.111627
1.321435
1.199841
1.320839
1.244545
1.207590
1.279712
1.429915
1.298785
1.489520
1.399517
1.434684
1.569986
1.621842
1.513958
1.671910
1.610518
1.770854
1.829863
1.907945
2.062917
2.278686
2.560616
2.817512
2.824664
3.189445
7.636547
27.864575
113.374591
246.866941
571.583509
941.625834
1015.805006
1015.805006
1015.805006
1015.805006
1015.805006
1015.805006
1015.804410
861.881971
451.601744
236.926675
82.374811
33.203959
14.833808
13.382435
13.870597
15.373826
18.581748
23.716688
34.450889
45.269728
61.745644
73.774457
87.313652
94.623566
96.059442
91.627836
79.886913
69.623590
56.961775
47.087669
36.243796
31.157732
26.371479
24.788976
23.351908
22.817850
22.315979
22.769570
22.563934
22.122860
22.209883
##ZVALUE=340
0.759959
0.829697
0.786781
0.659823
0.862479
0.962615
0.859499
0.988841
0.795722
0.967979
0.937581
0.813603
0.917912
0.785589
1.049638
1.056790
1.039505
0.850558
0.977516
1.149774
1.012683
1.039505
1.314878
1.156926
1.113415
1.162887
1.126528
1.094937
1.116991
1.221895
1.160502
1.249909
1.221895
1.242757
1.381636
1.302958
1.426935
1.356602
1.464486
1.493692
1.481771
1.721978
1.852512
1.894832
2.169609
2.194643
2.342463
2.340674
2.270937
2.763867
3.051758
4.541874
12.573600
63.071847
159.645677
413.758755
725.039840
1015.805006
1015.805006
1015.805006
1015.805006
1015.805006
1015.805006
1015.805006
1015.805006
656.752586
360.952616
136.422515
53.590536
17.851591
14.024973
14.322996
14.559627
16.680956
19.003749
24.632812
31.927824
44.808984
56.212544
72.797537
82.577467
90.698004
90.822577
86.213946
78.776479
65.563917
55.641532
44.576526
36.240816
29.968619
26.202798
23.396611
22.435784
21.750927
21.604896
21.605492
##ZVALUE=345
0.795722
0.945926
0.904799
0.784993
0.738502
0.827909
0.816584
1.039505
0.819564
0.854731
0.990629
0.802875
0.796914
1.027584
0.918508
1.015663
0.988841
0.962615
0.939965
1.030564
0.951886
0.934601
1.040697
1.014471
0.891685
1.023412
1.223683
1.183748
1.090765
0.993609
1.099706
1.184940
1.173615
1.224875
1.306534
1.229644
1.204610
1.278520
1.414418
1.428723
1.546741
1.595616
1.615882
1.613498
1.500845
1.629591
1.770854
2.066493
1.969934
2.308488
2.423525
2.501607
2.866983
3.304482
6.113648
36.247969
99.677444
274.889469
506.477952
954.991579
1015.805006
1015.805006
1015.805006
1015.805006
1015.805006
1015.805006
1015.805006
781.024098
446.577668
175.979733
78.651905
25.911927
14.895797
13.964772
14.150739
14.443994
15.253425
18.392801
22.370815
31.466484
40.633678
55.890679
65.633655
75.803995
82.470775
85.068941
81.971884
74.175596
65.164566
53.696632
44.714808
34.441948
29.055476
24.777651
22.402406
21.195412
##ZVALUE=350
0.859499
0.858903
0.890493
0.841618
0.759959
0.811815
0.830889
0.816584
0.766516
0.772476
0.905991
0.842810
0.882745
1.037717
0.951886
0.969768
0.829697
0.864863
0.905991
0.817776
0.917912
0.906587
0.834465
0.896454
1.060963
1.137853
0.995994
1.000762
1.140833
0.948906
1.041889
1.099706
0.980496
1.066923
1.159906
1.291633
1.138449
1.326799
1.139641
1.232624
1.361966
1.359582
1.269579
1.470447
1.503825
1.552701
1.722574
1.766682
1.898408
1.991987
2.066493
2.076626
2.221465
2.379417
2.392530
3.088713
4.021525
19.699931
62.032938
197.249651
384.203792
792.101026
1015.799642
1015.799642
1015.799642
1015.799642
1015.799642
1015.799642
1015.799642
904.158950
557.100773
252.569914
115.509629
32.048821
15.852451
13.066530
12.841821
13.155937
13.541579
14.937520
17.133951
22.615790
28.758645
37.771463
46.432614
59.072971
68.615675
75.436831
78.666806
75.636506
69.930553
60.044527
50.985813
40.661693
33.834577
26.803613
##ZVALUE=355
0.904799
0.902414
0.804663
0.802875
0.903606
0.818968
0.863671
0.805855
0.845790
1.092553
0.791550
0.965595
0.809431
0.971556
0.883937
1.080632
1.029968
0.887513
0.996590
0.956655
1.025796
0.974536
1.000762
0.816584
1.061559
1.005530
1.158714
1.198649
0.960827
1.039505
1.067519
1.067519
1.086593
0.991821
1.152754
1.205802
1.286864
1.283884
1.289845
1.284480
1.366735
1.375675
1.327991
1.532435
1.478791
1.577735
1.556873
1.589656
1.539588
1.839995
1.858473
1.883507
2.064705
2.088547
2.145767
2.377629
2.537966
2.613664
3.220439
9.128451
33.958554
132.230520
270.415545
567.922592
922.282934
1015.805602
1015.805602
1015.805602
1015.805602
1015.805602
1015.805602
1015.805602
695.616007
308.444500
146.499872
44.038892
18.830895
12.879968
12.291670
12.663603
12.735724
13.189912
14.583468
16.750693
19.478798
25.626421
32.239556
42.452812
51.373839
61.536431
67.380667
71.010590
70.463419
64.280629
57.378411
48.040748
##ZVALUE=360
0.790954
0.904799
0.946522
0.965595
0.725985
0.916719
0.911951
0.825524
0.696778
0.749826
0.891685
0.904799
0.935793
0.894666
1.100898
0.879765
1.059771
1.104474
0.914931
0.930429
0.968575
1.119971
0.983477
0.991821
1.004934
1.025796
1.160502
0.965595
1.106858
1.192689
1.161695
1.152754
1.225471
1.159906
1.183748
1.276731
1.041889
1.212955
1.211762
1.243949
1.168847
1.164675
1.361966
1.317859
1.357794
1.358986
1.624823
1.507998
1.640916
1.704693
1.710653
1.902580
1.748800
2.044439
2.084970
2.307892
2.438426
2.277493
2.499819
3.080964
3.293753
5.163550
16.914606
74.338913
178.309679
444.418788
739.764571
1015.805006
1015.805006
1015.805006
1015.805006
1015.805006
1015.805006
1015.805006
869.262815
428.530574
222.439766
79.537630
30.854940
13.195872
11.916757
11.979938
12.007952
11.960864
12.345910
13.106465
14.179945
17.609596
21.029711
27.804971
35.465956
45.895576
53.280592
60.302615
63.290596
64.155459
##ZVALUE=365
0.827909
0.952482
0.792742
0.752807
0.791550
0.857711
0.772476
1.011491
0.816584
0.780821
0.891685
0.993609
0.981688
0.820756
0.784993
0.889897
0.815988
0.833869
0.930429
0.979900
1.124740
1.033545
0.888705
1.061559
1.018643
1.051426
1.124740
0.980496
0.990629
1.131892
1.237988
1.005530
1.170635
1.225471
1.221895
1.259446
1.281500
1.256466
1.318455
1.169443
1.243949
1.391768
1.214743
1.358986
1.309514
1.478791
1.412630
1.582503
1.631975
1.532435
1.710653
1.560450
1.783967
1.876950
1.826882
2.071857
2.005696
2.291799
2.341866
2.572536
2.765656
3.144741
3.486872
4.029870
8.736849
50.296783
136.798024
358.666778
632.925630
1015.805006
1015.805006
1015.805006
1015.805006
1015.805006
1015.805006
1015.805006
1002.611518
579.470992
320.330858
118.555427
47.300458
15.202761
11.690855
11.452436
11.393428
11.293888
11.458993
11.507869
12.161732
13.152957
14.921427
19.362569
23.302436
31.239986
38.137436
47.206879
##ZVALUE=370
0.848770
0.939965
0.926852
0.869632
0.900626
0.980496
0.947714
0.918508
0.957847
0.974536
0.950694
0.929832
1.048446
0.926852
1.062751
0.901818
0.867844
0.882745
0.943542
0.882745
1.006722
1.000762
0.948906
0.994802
1.039505
1.089573
0.969768
1.023412
1.013875
1.009703
1.077652
0.954866
1.173615
1.067519
1.139641
1.114607
1.198649
1.239777
1.168847
1.174808
1.414418
1.263618
1.339912
1.360774
1.302958
1.458526
1.352429
1.350641
1.366735
1.391768
1.418591
1.425743
1.511574
1.574755
1.623631
1.875758
1.771450
1.817942
2.027750
2.152920
2.080798
2.309680
2.581477
2.591610
3.004670
3.513694
4.647970
20.072460
74.268579
255.457759
481.484532
926.131606
1015.805006
1015.805006
1015.805006
1015.805006
1015.805006
1015.805006
1015.804410
715.360641
402.195454
162.279606
74.138641
24.099946
12.485981
10.279417
10.205507
9.972453
10.010600
10.294914
10.421872
10.664463
11.509657
13.341904
15.661716
20.831823
##ZVALUE=375
0.695586
0.853539
0.680685
0.842810
0.856519
0.856519
0.810623
0.828505
0.975728
0.675917
0.859499
0.784993
1.035929
0.846982
0.775456
0.877976
0.986457
0.987649
0.965595
0.878572
0.922680
0.851750
0.906587
0.832677
0.966787
0.984669
0.988841
0.906587
0.967979
0.876784
0.967979
1.006722
0.916719
0.922680
0.985861
1.063943
0.960827
1.101494
1.029968
1.093745
1.228452
1.149774
1.263618
1.161695
1.264811
1.099706
1.293421
1.211762
1.103878
1.279712
1.259446
1.341701
1.433492
1.196861
1.442432
1.373887
1.448989
1.523495
1.587868
1.595616
1.755953
1.979470
1.921654
2.033710
2.185702
2.399683
2.503991
2.913475
3.408790
8.786917
31.920671
133.367777
301.697850
685.610771
1015.802622
1015.802622
1015.802622
1015.802622
1015.802622
1015.802622
1015.802622
886.553526
551.839471
252.095461
124.114752
39.452910
15.995502
9.306669
9.041429
9.232759
9.024739
9.502769
9.409785
9.379983
9.790659
10.377765
##ZVALUE=380
0.722408
0.788569
0.791550
0.766516
0.790954
0.642538
0.676513
0.787973
0.794530
0.784993
0.892878
0.898838
0.847578
0.789762
0.792742
0.723600
0.826716
0.808835
0.820756
0.817776
0.827909
0.797510
1.000762
0.812411
0.793934
0.979900
0.838637
0.881553
0.946522
0.949502
0.967979
0.936985
0.932813
0.954866
0.882745
0.973940
0.993609
0.918508
0.826716
1.017451
1.066923
1.022816
1.136661
0.981688
1.148582
1.139641
1.172423
1.128912
1.121759
1.156926
1.291633
1.182556
1.173615
1.067519
1.249909
1.184940
1.329780
1.237988
1.399517
1.448989
1.508594
1.434684
1.595616
1.589656
1.740456
1.865625
2.014637
2.331734
2.544522
2.887845
3.333688
5.153418
16.845465
80.532432
198.023915
496.218801
831.461549
1015.805006
1015.805006
1015.805006
1015.805006
1015.805006
1015.805006
1015.805006
755.478740
370.858908
188.741684
63.629746
24.987459
9.823442
8.690953
8.345842
8.178949
8.287430
8.294582
8.771420
##ZVALUE=385
0.823736
0.769496
0.783801
0.879765
0.807643
0.741482
0.810623
0.833869
0.673532
0.850558
0.784993
0.957847
0.808835
0.800490
0.628829
0.763535
0.678897
0.761747
0.768900
0.793934
0.748634
0.860691
0.813603
0.759959
0.783801
0.785589
0.725985
0.963807
0.795722
0.913739
0.836849
0.927448
0.882745
0.981688
0.920892
0.889897
1.018643
0.892878
0.817776
0.901818
0.819564
0.898838
0.968575
0.812411
1.019835
1.063943
1.097918
0.922680
1.013875
1.074672
1.074672
0.974536
1.138449
0.971556
1.112819
1.266599
1.138449
1.303554
1.352429
1.211762
1.275539
1.343489
1.290441
1.378655
1.639724
1.661777
1.759529
1.907945
2.169609
2.351999
2.395511
2.865791
3.052950
3.657937
10.665655
57.651997
143.975019
363.197923
649.691820
1015.805006
1015.805006
1015.805006
1015.805006
1015.805006
1015.805006
1015.804410
968.626738
565.518737
316.007733
114.975572
45.129657
12.360811
7.990599
7.604957
7.651448
7.713437
##ZVALUE=390
0.741482
0.743866
0.631809
0.644922
0.830889
0.642538
0.598431
0.679493
0.637770
0.756979
0.678897
0.773668
0.650883
0.722408
0.609756
0.729561
0.602603
0.596642
0.887513
0.705719
0.736713
0.868440
0.878572
0.767708
0.750422
0.699759
0.765920
0.858903
0.691414
0.805855
0.823736
0.909567
0.767708
0.848770
0.806451
0.677705
0.988841
0.762939
1.032948
0.763535
0.867844
0.842810
0.861883
0.951886
0.841618
0.944734
0.903606
0.989437
1.077652
1.014471
0.949502
1.120567
1.079440
1.167655
1.097918
1.150966
1.238585
1.104474
1.280904
1.265407
1.272559
1.185536
1.292825
1.276731
1.422763
1.612902
1.685619
1.981854
2.056956
2.169609
2.472997
2.355576
2.614856
2.636909
2.730489
2.952814
5.938411
26.700497
127.976537
285.079479
615.420938
967.586637
1015.805602
1015.805602
1015.805602
1015.805602
1015.805602
1015.805602
1015.805602
713.652968
338.150859
173.697472
59.183836
22.804737
8.449554
6.945729
##ZVALUE=395
0.666976
0.699759
0.641942
0.612736
0.668764
0.585914
0.671744
0.670552
0.776649
0.739694
0.822544
0.762939
0.604987
0.747442
0.627637
0.672936
0.544786
0.655651
0.681877
0.568628
0.784993
0.697970
0.705719
0.789762
0.869632
0.667572
0.740886
0.761747
0.618696
0.672936
0.687838
0.725985
0.810623
0.865459
0.657439
0.764728
0.742674
0.867844
0.724792
0.755787
0.864863
0.810623
0.969768
0.837445
0.939965
0.963807
0.855923
0.953674
0.851750
0.901818
0.921488
0.933409
0.926852
1.080632
1.026988
1.063943
0.934601
1.109838
1.172423
1.187921
1.218915
1.056790
1.270771
1.224875
1.319647
1.482964
1.579523
1.780987
1.849532
1.970530
2.114773
2.222657
2.214909
2.256632
2.232790
2.586842
2.514720
2.690554
3.445745
14.652610
56.094527
209.988952
409.771800
798.080564
1015.764475
1015.764475
1015.764475
1015.764475
1015.764475
1015.764475
1015.764475
870.232582
536.099672
226.945877
106.270909
32.702684
##ZVALUE=400
0.589490
0.613928
0.591874
0.711679
0.628829
0.754595
0.760555
0.713468
0.728965
0.666976
0.638962
0.595450
0.769496
0.607967
0.594854
0.622869
0.694990
0.750422
0.763535
0.851750
0.610948
0.755787
0.857711
0.713468
0.829697
0.821948
0.788569
0.590682
0.724792
0.739694
0.750422
0.715852
0.781417
0.793934
0.798702
0.749826
0.760555
0.873804
0.894666
0.892878
0.776649
0.760555
0.739694
0.829697
0.850558
0.839829
0.902414
0.932813
0.984669
0.920892
0.929832
0.978708
0.982881
1.001954
1.069903
1.053810
1.166463
1.026988
1.203418
1.176596
1.041889
1.117587
1.259446
1.160502
1.396537
1.447797
1.546741
1.667738
1.667738
1.846552
1.991987
1.989603
2.007484
2.027750
1.902580
2.193451
2.084970
2.231598
2.335906
2.523661
3.002882
7.482767
28.360486
113.695860
247.126818
552.054644
886.277556
1015.807986
1015.807986
1015.807986
1015.807986
1015.807986
1015.807986
982.480645
666.399598
333.490968
##END
