##TITLE=
##FORMAT=SPECTACLE-ASCII V-1.2
##DATA TYPE=ULTRAVIOLET SPECTRUM
##SECOND TYPE=ULTRAVIOLET SPECTRUM
##DATE=09/27/17
##TIME=10:45:56
##SPECTROMETER/DATA SYSTEM=SPECTACLE
##XUNITS=NM EM
##YUNITS=ENERGY
##YFACTOR=1
##FIRSTX=220
##LASTX=410
##NPOINTS=96
##3DDATA=Equidistant
##ZUNITS=NM EX
##FIRSTZ=210
##LASTZ=400
##ZPOINTS=39
##XYDATA=(Y..Y)
##ZVALUE=210
3.620982
3.435612
3.584623
3.657937
3.777742
3.847480
3.894567
3.867745
3.818870
4.511476
4.272461
3.927946
4.624724
4.118681
4.359484
4.506707
4.143715
4.766583
5.749464
4.974604
5.208850
4.982948
5.688667
5.695820
6.242990
6.519556
6.307960
7.041693
7.129908
6.997585
6.842613
6.610751
7.102489
6.776452
7.209778
7.811785
7.189512
7.350445
8.195639
8.042455
7.875562
7.136464
8.136630
8.067489
7.236600
8.063912
7.551908
9.456873
8.297563
8.195639
10.055900
8.329749
8.734465
9.294748
9.575486
8.882880
9.875894
10.428429
8.689761
10.053515
9.558797
9.176731
10.540485
11.525750
10.204911
10.250807
10.359883
11.929870
13.749599
15.187860
17.323494
18.496513
22.466779
25.617480
28.558969
28.934479
28.735995
28.319955
26.193857
25.986433
24.748445
21.535754
18.762946
17.178655
14.450550
13.404489
11.263490
10.549426
10.097623
10.445714
9.608865
9.480715
9.852648
10.338426
10.142922
11.216998
##ZVALUE=215
6.878972
6.701946
5.817413
6.196499
5.939603
5.484819
4.811883
5.777478
6.029606
5.897880
6.685853
5.980730
5.427599
4.710555
4.447699
4.736781
4.620552
5.273819
4.448891
5.010962
5.179644
5.700588
5.722642
6.214976
6.307960
6.656647
6.826520
7.173419
6.973743
6.307960
6.913543
7.428527
7.336736
7.944703
7.996559
7.697940
8.141994
7.292628
8.401871
8.178949
8.215904
8.101463
9.015799
8.771420
8.368492
9.163618
9.227991
9.486675
9.119511
8.010864
9.749532
9.234548
8.260608
9.352565
10.461807
9.738803
9.127855
9.723902
10.388494
10.507703
10.664463
10.972619
10.383725
10.150671
10.593534
10.464787
11.752844
11.715889
13.988614
15.743971
19.031763
18.813610
23.957491
24.908781
28.614998
27.925968
28.731823
30.292869
29.227734
27.593970
23.940802
23.022890
20.842552
19.392967
16.687512
14.003515
11.320710
11.892915
11.146665
11.941791
10.313988
10.510683
10.541677
9.470582
9.701848
10.783672
##ZVALUE=220
18.795729
18.601418
20.996928
22.484660
20.209551
18.021464
15.472770
13.714433
11.059642
10.299683
10.694861
12.677908
11.494756
11.856556
10.345578
8.711815
7.260442
6.403923
5.838871
5.658865
5.075932
6.068945
5.483627
5.806684
5.982518
6.914735
6.920695
6.735921
7.508993
7.980466
8.020997
8.677840
8.220673
7.699728
7.935762
8.545518
9.250641
8.453727
9.006858
9.092689
10.024905
7.840991
9.852648
9.932518
9.858608
10.159612
10.277629
10.550618
10.101795
10.472536
11.610985
10.840893
10.568500
10.538697
11.732578
11.193752
12.408495
11.453629
12.158751
13.009906
12.502670
13.492703
12.437701
13.380647
13.225675
14.587641
13.403893
14.335513
16.857982
18.779635
21.500587
22.992492
25.136471
27.862787
30.313730
30.500889
32.011867
31.762719
32.276511
31.615496
29.108524
28.712749
24.787784
23.429990
21.442771
17.494559
15.835762
14.310479
14.336705
13.661981
12.634993
12.634993
12.616515
11.950731
12.821555
12.848973
##ZVALUE=225
32.619834
37.232637
45.689940
61.981678
70.317984
68.804622
69.333911
56.748986
45.489669
30.156970
24.208426
21.915436
20.453930
23.558736
23.699999
23.882985
20.170808
17.266870
14.231801
11.931658
7.932782
7.267594
6.874800
6.225705
6.675720
7.504821
8.454919
7.488728
7.676482
8.455515
8.064508
8.850694
8.920431
8.956790
9.673834
9.273887
9.846687
9.927750
10.168552
10.428429
10.451674
11.376739
11.402965
11.462569
11.391640
11.115670
12.036562
11.857748
11.764765
12.209415
12.792945
12.727976
14.655590
13.350844
14.661551
14.950633
14.852881
14.771819
14.758706
15.250444
15.749931
15.673637
16.201735
17.720461
17.081499
17.242432
18.696785
19.046664
20.107627
21.044612
23.094416
25.598407
25.379658
28.200746
30.538440
31.569600
30.714869
30.515790
28.272867
27.430654
26.999712
24.578571
23.550987
22.423863
21.459460
19.983649
20.088553
17.827749
16.719699
17.043948
16.494989
15.348792
16.716719
16.105771
15.474558
16.359687
##ZVALUE=230
30.271411
34.731627
54.055452
93.335509
120.419860
158.530474
177.385807
182.756782
175.064802
152.159929
106.426477
77.834725
54.806471
46.521425
43.514967
46.719909
49.704909
47.816634
43.377876
33.906698
26.939511
18.713474
13.391972
9.742975
7.486939
7.840991
7.174611
7.470846
7.371902
7.196665
8.247495
8.826852
8.593798
9.253621
10.196567
10.379553
10.930896
10.919571
9.625554
10.023713
10.946989
11.126995
11.642575
11.180639
12.618899
12.929440
11.634827
13.100505
11.557937
12.645721
13.760924
12.727976
14.517903
14.993548
15.444756
17.108917
18.059611
17.979741
18.045902
18.622875
19.615889
21.477938
21.335483
21.008849
20.088553
22.623539
23.002625
23.154616
27.428865
28.547645
27.372837
31.250715
33.698678
34.892559
36.595464
37.089586
37.170649
36.716461
35.526752
34.676790
30.830503
31.206608
28.767586
30.923486
28.149486
28.602481
26.972890
25.890470
25.902987
24.292469
25.891662
24.727583
23.481846
24.441481
23.382902
24.794936
##ZVALUE=235
12.465715
14.772415
32.226443
64.111948
105.132461
182.672739
249.839425
330.336690
373.327732
375.929475
348.497629
274.895430
209.049582
136.575699
100.536942
72.981715
71.872473
77.223778
78.273416
83.078742
77.008605
65.265894
51.668882
36.588907
25.297999
17.511845
11.748672
11.219978
9.634495
10.199547
9.536743
9.168983
9.349585
10.960698
10.421872
10.307431
11.024475
11.702776
10.990500
11.730790
11.107922
12.597442
10.907650
12.019873
11.789799
11.562705
12.949705
11.990666
15.329719
15.153885
16.215444
17.545819
17.198920
19.359589
18.518567
19.718409
20.795465
22.706985
24.629831
24.798512
26.880503
26.241541
28.308630
28.247833
28.539896
29.184818
32.250881
33.224821
33.710599
35.330653
38.419962
41.105747
42.494535
46.208501
46.123862
46.538711
47.518611
45.414567
47.696829
44.422746
45.384765
42.907596
41.275620
39.521456
38.671494
36.884546
39.702654
38.299561
37.081838
35.682917
35.207868
36.072731
35.332441
34.111738
33.693910
34.238696
##ZVALUE=240
3.809929
3.967881
6.369948
19.783974
40.910840
98.736882
165.950656
297.194719
409.785509
521.117449
627.848506
637.542605
574.156642
492.904782
364.083648
259.817839
152.949691
119.240880
96.992850
99.501610
104.807615
112.643838
110.722780
97.420812
84.085464
63.791871
47.985911
31.127930
22.466779
15.251637
12.250543
9.946823
11.273623
10.887980
10.260940
11.041760
10.475516
10.809898
11.088848
11.056662
12.113452
12.152791
12.633801
12.095571
12.081861
12.876987
13.551712
13.987422
14.797449
14.662743
16.664863
17.622709
18.989444
19.346476
21.544695
21.077991
24.531484
23.981929
25.297999
28.085709
28.853416
30.699968
34.053922
31.667948
33.477545
33.948421
34.623742
38.419962
38.268566
41.332841
45.731664
46.215653
46.869516
52.156448
53.190589
53.778887
54.313540
54.160953
53.272843
52.619576
53.977966
48.555732
50.959587
48.347712
49.105883
46.763420
45.684576
49.481988
47.999620
46.266913
46.244860
46.805739
46.405792
43.598413
45.007467
42.715669
##ZVALUE=245
2.746582
3.109574
2.769828
3.614426
6.056428
13.262630
41.979551
90.346932
204.126835
317.940712
513.376594
658.795834
762.169957
813.637972
789.350867
662.598610
534.770489
365.390778
253.033638
149.127841
111.789703
103.675723
111.442804
124.384761
129.876733
126.077533
109.198689
93.015432
69.893003
52.108765
37.683845
24.341941
17.917752
11.263490
10.953546
10.354519
10.363460
10.925531
11.061430
10.701418
10.343790
11.440516
12.039542
11.548996
11.257529
12.346506
13.082623
11.638999
13.467669
14.197826
15.252829
16.336441
16.215444
17.727613
17.242432
20.203590
20.656586
21.915436
24.375916
24.628639
25.317669
25.527477
26.534796
27.943850
29.485822
29.766560
31.647682
33.997893
34.992695
37.751794
39.895773
41.833520
43.691993
46.280622
47.987700
48.104525
48.681498
50.541759
48.992634
50.190687
45.506954
48.921704
46.649575
46.866536
48.632622
46.218634
47.525764
46.758652
46.896935
44.043660
45.172572
43.821931
45.866966
44.288635
44.121742
45.459867
##ZVALUE=250
2.640486
2.876520
2.880692
3.137589
3.318787
2.976656
3.804564
10.228753
28.441548
64.899921
165.271759
292.536020
493.386984
657.156706
838.258862
939.785838
939.375758
867.184997
756.048560
528.636575
364.177823
210.084915
135.044456
101.553798
103.351474
121.277571
131.987929
139.008760
132.288933
120.760798
97.948909
77.616572
56.360960
37.981868
24.522543
16.803741
12.581944
10.860562
10.568500
10.368824
9.626746
11.574626
11.102557
10.244846
10.518432
11.439919
11.452436
12.477636
12.594461
12.321472
13.490915
15.021563
16.016960
14.675856
16.343594
16.855597
17.848611
18.333793
19.194484
20.281672
22.388697
22.722483
22.723675
24.062991
24.828911
27.394891
25.910735
26.862621
30.447841
31.834841
33.883452
35.307407
36.871433
39.603710
40.237904
41.998625
43.113828
41.311979
40.130615
41.855574
41.786432
41.881800
42.499900
41.069984
41.065812
42.114854
39.905906
40.444732
41.520000
41.565895
41.041970
41.707754
41.087866
41.704774
40.462613
40.410757
##ZVALUE=255
2.558827
2.632737
2.708435
2.839565
2.600551
2.689958
2.770424
2.659559
3.586411
6.345510
24.697781
58.717728
124.366879
269.635916
428.693891
677.043796
864.869952
1015.805006
1015.805006
1015.805006
934.497714
743.871927
471.517444
296.395421
155.790448
108.934641
93.929768
104.490519
126.987696
141.103864
145.701766
140.996575
129.145980
102.341771
82.734823
55.455565
40.199757
22.392869
15.634894
12.195706
10.213852
9.513497
9.614825
10.404587
10.786653
11.676550
10.772943
11.567473
11.771917
12.454987
13.076663
12.986660
14.297962
13.782978
14.927983
16.040802
16.566515
16.815662
17.506480
18.478632
18.381476
19.881725
20.357966
21.142960
22.319555
22.320747
24.074912
24.766922
26.793480
26.739836
28.901696
29.614568
32.416582
33.803582
34.437776
37.360787
37.427545
35.283566
36.872625
36.446452
38.319826
37.944913
38.746595
37.712455
38.190484
38.383603
37.010908
39.164424
37.225485
37.833452
38.331747
38.113594
38.333535
38.335919
39.201975
39.366484
##ZVALUE=260
2.102852
2.266765
2.279878
2.312660
2.590418
2.528429
2.429485
2.672672
2.741814
3.106594
3.264546
4.055500
10.516644
38.701892
86.241961
209.142566
352.967978
596.902966
813.867450
1015.809774
1015.809774
1015.809774
1015.809774
905.655026
609.245896
415.802002
235.215425
143.256783
88.784695
87.558627
100.311637
123.945475
143.591762
153.221488
149.149895
127.488971
111.069679
81.594586
60.209632
39.338470
27.492642
16.998649
13.159513
10.550618
11.108518
10.854602
11.756420
10.867715
11.464953
12.255907
12.520552
13.513565
13.783574
13.980865
15.694499
15.976429
16.164780
16.217828
16.338825
17.088652
18.306971
18.838644
19.157529
19.662976
21.623969
21.883845
21.899939
23.668408
24.149418
25.659800
25.693774
28.383732
29.683709
30.317903
33.282638
32.512546
33.985972
33.535957
32.719970
34.427643
33.043623
35.835505
35.222769
34.663677
34.227967
34.183860
35.451651
36.129951
35.397410
35.591722
35.687685
35.988688
35.945773
35.805702
36.394000
35.584569
##ZVALUE=265
2.408624
2.228618
2.244711
2.079606
2.514720
2.479553
2.351999
2.510548
2.557635
2.701879
2.745986
2.991557
2.659559
3.279448
6.193519
25.747418
62.691569
164.484978
292.669535
559.877753
802.380443
1009.465456
1015.805006
1015.805006
1015.805006
1015.805006
825.428963
586.404800
323.779583
194.612741
102.491975
77.597499
82.694888
112.323761
131.256580
151.090622
154.236555
147.889853
134.673715
108.474493
85.026622
57.193637
40.951967
25.509000
18.182993
13.392568
12.307763
11.899471
12.240410
13.064742
13.261437
13.786554
14.102459
15.256405
16.246438
15.856624
17.118454
18.390417
17.613769
18.830895
19.478798
20.265579
21.573901
20.558834
20.747781
22.163987
23.194551
23.970604
24.300814
26.016831
26.719570
28.796792
29.646754
29.704571
30.299425
32.386780
33.369660
31.727552
32.377839
32.941699
32.626987
32.946467
32.769442
33.331513
33.194423
34.153461
33.124685
33.051968
33.439994
33.555627
33.567548
35.349727
34.574866
34.010410
33.749938
35.059452
##ZVALUE=270
2.083778
2.134442
2.049804
2.007484
2.050996
1.985431
2.128482
2.328753
2.500415
2.292991
2.357960
2.423525
2.526641
2.793670
2.884865
3.048778
3.670454
13.611913
37.587881
121.784806
244.715810
439.822674
786.120892
1015.798450
1015.798450
1015.798450
1015.798450
1015.798450
1015.798450
831.480026
569.782853
296.308994
167.587996
79.891682
67.362785
87.381601
109.615922
137.307644
151.404738
159.626603
153.102875
135.235786
114.793777
86.016655
63.832998
41.241646
29.385686
20.660758
16.482472
15.473962
14.769435
15.615821
15.734434
16.575456
17.297864
18.502474
19.152761
18.594861
19.083619
20.167828
20.742416
21.672845
21.831989
22.155643
23.508668
23.324490
23.055673
23.593903
25.285482
26.581883
27.613640
28.713942
30.166507
30.157566
30.452609
32.696724
31.508803
30.000806
31.670928
31.893849
31.765699
31.695962
32.288432
32.727718
32.398701
33.139586
32.373667
32.431483
31.304955
32.455921
33.543706
32.596588
33.044815
33.810735
32.736659
32.229424
##ZVALUE=275
1.919866
2.037883
1.870990
1.711845
1.964569
1.878738
2.027750
2.106428
2.248883
2.231598
2.379417
2.317429
2.215505
2.313852
2.487898
2.637506
2.782941
3.121495
3.360510
5.787611
28.496981
75.595975
215.331912
390.241742
636.681914
991.917849
1015.805006
1015.805006
1015.805006
1015.805006
1015.805006
992.043018
732.144713
394.519567
227.348804
102.806687
64.789653
65.808892
85.500479
113.745928
132.570863
153.496861
158.618689
151.565671
135.466456
109.175444
89.559555
63.768625
46.243668
31.546950
24.208426
19.629598
17.727613
17.791986
19.072890
19.564629
19.370914
20.644665
20.053983
21.513700
22.616982
22.660494
22.625923
24.064779
23.877621
24.540424
24.761558
26.386976
27.180910
27.314425
27.761459
29.564500
30.074716
29.447675
31.780601
31.769872
32.148957
31.223893
32.181740
31.166673
31.484962
31.130910
31.738877
31.295419
31.255484
31.449795
30.862689
31.416416
31.409860
31.009912
31.884909
30.169487
30.113459
31.170845
31.017661
31.522512
##ZVALUE=280
1.858473
1.700521
1.926422
1.963973
1.973510
1.785755
1.911521
2.001524
1.995564
1.935959
1.880527
2.120733
2.078414
2.044439
2.236962
2.527833
2.280474
2.517700
2.758503
2.964735
3.194809
4.234910
18.757582
57.709813
174.376965
326.305628
541.041493
905.495882
1015.805006
1015.805006
1015.805006
1015.805006
1015.805006
1015.805006
868.119597
501.422882
298.614502
126.791596
68.000555
48.477650
58.316588
85.064769
107.578635
132.913589
147.039890
152.237415
145.798922
130.256414
112.716556
84.357858
66.446662
44.660568
34.277439
24.605989
20.320415
19.408464
19.344687
20.659566
20.506978
22.030473
22.485852
23.424625
23.278594
24.404526
24.096966
25.581717
25.249720
27.341843
27.338862
26.564598
28.170943
29.166937
30.285716
29.724836
30.209422
31.200647
30.291677
30.899644
31.437874
31.323433
30.623674
31.107664
30.776858
31.617880
30.728579
30.551553
29.798746
30.246973
30.112863
29.992461
30.154586
29.470921
29.958487
29.149652
29.639602
29.188991
##ZVALUE=285
1.778603
1.724958
1.817942
1.709461
1.833439
1.746416
1.900792
1.771450
1.854897
1.977682
1.994967
1.753569
1.895428
1.943707
2.011657
2.165437
2.168417
2.293587
2.315640
2.563000
2.396703
2.787709
2.897978
3.232956
8.231997
25.915504
92.693567
198.955536
434.333086
696.128011
982.128978
1015.805006
1015.805006
1015.805006
1015.805006
1015.805006
1015.805006
665.744543
417.391658
197.054744
98.558664
43.630600
39.817691
55.451989
77.081919
106.716752
124.746561
143.268704
149.226785
146.117806
133.248568
112.545490
93.192458
68.000555
51.838756
35.097599
28.465986
24.045706
22.743940
22.492409
22.962689
22.826791
24.440885
24.471879
24.712682
24.656653
25.944710
26.025772
27.416945
27.767420
28.114915
28.760433
29.590726
29.854774
30.224919
30.340552
29.963851
30.214787
30.985475
30.374527
30.145645
30.058622
30.307770
30.438900
29.831529
29.387474
30.173659
30.151606
29.797554
30.401945
30.187964
28.583407
28.227568
28.791428
28.619766
28.753877
##ZVALUE=290
1.405478
1.505613
1.361966
1.682639
1.574755
1.459718
1.491904
1.464486
1.613498
1.688600
1.603961
1.671910
1.641512
1.733899
1.720786
1.838803
1.870990
1.948476
1.954436
2.053976
2.196431
2.087951
2.226830
2.380610
2.779961
3.035665
4.050732
10.226965
48.886538
118.772984
246.669650
555.506945
876.413584
1015.614867
1015.614867
1015.614867
1015.614867
1015.614867
1015.614867
903.815627
597.180724
298.427939
153.209567
55.351853
32.126904
37.766695
52.022934
76.124668
96.927881
124.720931
136.538744
148.175955
147.482753
131.969452
114.909410
87.714791
70.369840
50.217509
40.275455
31.272769
27.002692
24.758577
24.295449
24.523735
25.011897
25.567412
26.424527
27.984977
27.834773
28.718710
28.097630
29.361844
29.485822
30.106902
31.021833
30.685663
30.280948
30.028820
29.803514
30.467510
29.740930
29.212832
29.934645
30.645728
29.719472
30.010939
29.776692
29.242635
29.371977
29.462576
29.338598
28.446913
27.799606
28.034449
28.614998
28.415918
##ZVALUE=295
1.601577
1.781583
1.616478
1.652837
1.848936
1.699924
1.705885
1.626611
1.697540
1.754761
1.737475
1.825690
1.729727
1.720786
1.978874
1.882911
1.965761
1.909733
1.965761
2.177954
2.299547
2.228618
2.508759
2.435446
2.638698
2.835989
3.062487
3.132820
3.765821
7.073879
21.762848
86.975694
195.885897
513.514876
889.203548
1015.805006
1015.805006
1015.805006
1015.805006
1015.805006
1015.805006
1015.805006
783.622861
407.211781
222.095847
80.507994
38.181543
26.738644
33.988953
53.504705
70.834756
98.257661
116.911530
136.130452
143.635869
141.479969
130.517483
111.363530
92.854500
70.252419
55.160522
40.024519
34.442544
28.073788
26.084781
26.666522
26.445985
26.269555
27.186871
28.500557
28.654933
29.148459
29.721856
30.282736
30.143857
29.816628
30.137897
30.637980
30.199885
30.085444
30.152798
30.025840
29.938817
30.339956
30.221939
29.915571
29.752851
29.684901
29.170513
28.698444
28.661489
28.802752
28.472543
27.990937
28.323531
27.940869
##ZVALUE=300
1.667738
1.494884
1.526475
1.493692
1.455545
1.494884
1.664758
1.696944
1.785755
1.595616
1.617670
1.601577
1.777411
1.804829
1.790524
1.652837
1.840591
1.871586
1.882911
1.885891
1.992583
2.116561
2.218485
2.261996
2.242923
2.535582
2.662539
2.771616
2.700686
3.191829
3.329515
3.889799
12.347698
41.197538
139.183402
281.971693
632.743835
985.524654
1015.805602
1015.805602
1015.805602
1015.805602
1015.805602
1015.805602
968.790650
631.885529
303.712487
157.903433
57.862997
28.486848
25.115609
33.607483
50.198436
67.316890
91.923475
110.948682
130.860806
139.726996
137.941837
130.806565
112.005472
93.963742
71.321726
56.983829
42.189956
35.329461
29.339790
27.764440
27.218461
27.486682
28.050542
28.527975
28.709769
28.977990
29.664636
29.602647
29.843450
29.697418
30.337572
30.177832
29.915571
29.881001
30.372739
30.689836
30.557513
29.975772
29.589534
29.624701
29.697418
29.908419
29.705763
28.970838
27.878881
27.793646
27.911663
27.628541
##ZVALUE=305
1.486540
1.466870
1.353621
1.481771
1.438856
1.477599
1.212955
1.450777
1.367927
1.498461
1.547933
1.552701
1.603961
1.596808
1.384616
1.534820
1.629591
1.673698
1.564622
1.635551
1.801848
1.896620
1.827478
1.950860
2.010465
2.112985
2.249479
2.263784
2.131462
2.288818
2.841949
2.628565
2.904534
3.253818
5.285740
26.966929
78.250766
230.752826
421.232581
806.097984
1015.805006
1015.805006
1015.805006
1015.805006
1015.805006
1015.805006
1015.805006
660.854578
411.981940
190.966725
95.197558
34.294724
22.059679
25.071502
33.509731
49.947500
67.009926
89.883804
107.674003
126.064420
133.714676
133.342743
124.004483
107.748508
91.365576
68.396926
55.316687
40.669441
34.332871
29.055476
27.965903
27.398467
27.295947
27.793646
28.181672
28.193593
28.311610
28.537512
29.546618
30.060410
29.870868
29.530525
29.036999
29.950738
29.854774
29.578805
29.940605
29.301643
29.335618
29.243827
28.876662
28.498769
28.630495
28.531551
27.832985
27.675629
##ZVALUE=310
1.410842
1.356602
1.400709
1.398921
1.477599
1.492500
1.552701
1.406670
1.428723
1.610518
1.581907
1.420975
1.562834
1.560450
1.600981
1.470447
1.486540
1.493692
1.480579
1.475811
1.592636
1.637936
1.742840
1.829863
1.952648
1.901984
1.933575
2.057552
2.081990
2.211928
2.051592
2.418756
2.328753
2.588630
2.675653
2.992749
3.720522
12.090802
40.480494
134.721994
278.132558
594.844818
927.567482
1015.805602
1015.805602
1015.805602
1015.805602
1015.805602
1015.805602
909.950733
598.836541
298.230648
156.319737
56.402683
26.130676
20.113587
23.329854
32.495856
42.943954
62.461495
79.708695
101.035833
115.452409
125.557780
127.730966
118.613839
107.394457
88.655949
71.888566
52.641630
43.185949
33.701658
30.174851
28.080940
27.496815
27.269721
27.258992
28.024912
28.209686
28.425455
29.070973
28.256774
29.259920
29.251575
29.277802
29.608607
29.200912
29.181838
29.431581
29.254556
29.439926
28.757453
28.381944
28.152466
27.849674
27.494431
##ZVALUE=315
1.681447
1.569986
1.735687
1.414418
1.527667
1.457930
1.615882
1.524687
1.525879
1.573563
1.644492
1.615882
1.539588
1.791716
1.700521
1.814961
1.695752
1.820922
1.723766
1.571774
1.887679
1.691580
1.680851
1.703501
1.857877
1.864433
1.892447
2.072453
2.062917
2.185702
2.183914
2.188683
2.480745
2.441406
2.527833
2.870560
2.983809
3.091693
3.325939
6.259680
21.002889
88.483691
192.798972
439.941883
725.404620
1016.036868
1016.036868
1016.036868
1016.036868
1016.036868
1016.036868
1016.036868
774.567723
408.376455
223.190784
82.428455
36.426783
19.054413
18.854737
22.985935
29.413700
42.248964
55.958629
75.258613
92.472434
111.648440
118.566751
121.428967
116.122961
100.500584
86.079836
68.383813
54.506660
40.637851
33.901930
28.828979
28.012991
27.281642
27.041435
27.131438
27.619600
27.839541
28.486848
28.314590
29.095411
29.161572
29.552579
29.470921
29.321909
28.993487
28.812885
28.107762
28.494596
28.176904
28.481483
28.150678
##ZVALUE=320
1.303554
1.398921
1.347661
1.304746
1.401901
1.219511
1.233816
1.219511
1.152754
1.243949
1.352429
1.395941
1.457930
1.381636
1.451969
1.523495
1.289845
1.484752
1.482964
1.237988
1.398921
1.705885
1.515746
1.534820
1.693964
1.724958
1.768470
1.671910
1.764894
1.825690
1.858473
1.650453
2.118945
2.018809
2.184510
2.232790
2.378821
2.360940
2.677441
2.759695
2.826452
3.861785
9.837747
51.810741
129.874945
338.612795
581.864715
979.631543
1015.805006
1015.805006
1015.805006
1015.805006
1015.805006
1015.804410
958.528519
532.162786
305.641890
128.740668
58.626533
22.083521
16.223788
16.912818
20.064712
26.640892
35.155416
52.015781
66.020489
86.456537
100.640655
111.568570
114.053488
108.328462
99.297762
80.981851
67.155957
50.083995
40.873885
33.379793
29.581785
27.204752
27.404428
27.376413
27.447939
27.361512
28.257966
28.504729
27.488470
28.731823
28.028488
28.402805
28.567910
27.770996
27.895570
27.511716
27.546883
28.030872
##ZVALUE=325
1.021624
1.161695
1.174808
1.300573
1.272559
1.267791
1.397729
1.375675
1.237988
1.444817
1.357794
1.236796
1.330972
1.312494
1.325607
1.340508
1.404881
1.394749
1.425743
1.401901
1.520514
1.537800
1.568794
1.432896
1.438856
1.582503
1.613498
1.676679
1.744628
1.733899
1.524687
1.554489
1.622438
1.774430
2.132654
1.936555
1.825690
2.296567
2.230406
2.224445
2.588630
2.695918
2.857447
3.200769
5.831718
34.403801
94.554424
264.350772
484.007597
920.201540
1015.813947
1015.813947
1015.813947
1015.813947
1015.813947
1015.813947
1015.813947
669.640899
403.064489
173.701644
82.749724
27.575493
16.041994
14.266968
14.712811
19.024611
24.741888
35.455823
48.463941
68.081617
82.986951
98.894835
106.261969
108.776689
103.513598
90.342760
77.328682
61.322451
49.607754
38.294792
33.247471
28.621554
27.882457
27.067661
26.720762
27.374625
27.512908
27.250648
27.118921
26.849508
27.189851
27.458668
27.231574
26.916862
26.469827
27.226806
##ZVALUE=330
1.011491
1.328588
1.186728
1.116991
1.267791
1.327991
1.150966
1.226664
1.283884
1.272559
1.159906
1.241565
1.180768
1.127720
1.274943
1.233816
1.386404
1.297593
1.384616
1.420975
1.238585
1.377463
1.404881
1.443624
1.342893
1.437664
1.519918
1.547933
1.391768
1.644492
1.528859
1.507998
1.784563
1.585484
1.657605
1.670718
1.786947
1.822710
1.824498
1.996756
1.948476
2.326965
2.439618
2.530813
2.661943
2.988577
3.699660
14.391541
47.026873
161.015391
322.071910
663.734674
982.151628
1015.805006
1015.805006
1015.805006
1015.805006
1015.805006
1015.805006
858.207941
542.011857
247.116685
122.706890
43.184757
19.279718
13.229847
13.608932
15.779734
18.120408
25.574565
33.508539
48.024654
61.813593
79.875588
93.278885
102.202892
103.493929
97.373724
87.195635
73.106885
60.322881
47.537684
39.232969
32.964945
30.255914
27.624965
27.043819
26.931763
26.109815
26.540756
26.243925
26.224852
26.214719
26.267767
26.428699
26.484728
##ZVALUE=335
1.254678
1.131892
1.112819
1.237988
1.337528
1.115799
1.179576
1.098514
1.206994
1.295805
1.258850
1.148582
1.053810
1.232624
1.182556
1.219511
1.239777
1.280904
1.199841
1.317859
1.412630
1.373887
1.249909
1.496673
1.345873
1.379848
1.492500
1.383424
1.471639
1.527667
1.235604
1.453757
1.526475
1.803637
1.716614
1.613498
1.499653
1.824498
1.692772
1.809597
1.759529
1.897812
2.109408
2.173781
2.253652
2.572536
2.600551
2.860427
3.125668
7.028580
24.371743
99.895597
217.403769
511.557460
843.057036
1015.805006
1015.805006
1015.805006
1015.805006
1015.805006
1015.805006
1006.556749
716.077685
368.202925
188.775659
62.832832
26.516914
14.216900
13.270974
14.070868
15.799999
19.390583
24.484992
35.070777
45.636892
62.485933
75.403452
88.842511
96.161962
97.578764
93.384981
82.203746
73.323846
59.333444
49.099922
39.166808
33.955574
29.331446
27.312636
26.415586
26.066899
25.476813
25.412440
25.394559
25.602579
25.195479
##ZVALUE=340
1.065731
1.119971
1.176000
1.201630
1.160502
1.135468
1.153946
1.425743
1.224875
1.007915
1.240969
1.283884
1.010895
1.154542
1.229644
1.220703
1.198649
1.192689
1.156926
1.159906
1.176000
1.370907
1.317859
1.116991
1.390576
1.244545
1.377463
1.291633
1.363754
1.413822
1.326799
1.509786
1.582503
1.583695
1.409650
1.323819
1.619458
1.647472
1.488924
1.639724
1.560450
1.715422
1.774430
1.954436
2.080798
2.032518
2.072453
2.330542
2.382994
2.525449
3.086925
4.066825
12.355447
62.025785
152.083039
381.967425
649.967790
1015.805006
1015.805006
1015.805006
1015.805006
1015.805006
1015.805006
1015.804410
861.690640
452.795625
248.778462
98.584890
39.993525
15.563965
13.819933
14.113784
15.160441
16.920567
19.899607
26.174784
33.134818
45.714974
57.118535
73.733926
84.122419
91.070533
93.714595
87.729692
80.997944
68.170428
58.934689
46.541691
40.012002
33.160448
29.315948
26.180744
25.229454
24.683475
24.513602
24.552941
##ZVALUE=345
1.073480
1.088977
1.159906
1.130700
0.949502
1.040697
1.054406
1.062751
1.075864
1.071692
1.124740
1.087785
1.104474
1.121759
1.159906
1.213551
1.104474
1.289845
1.092553
1.148582
1.217723
1.335740
1.136661
1.120567
1.250505
1.121759
1.185536
1.226664
1.193881
1.347661
1.233816
1.425743
1.336932
1.443624
1.592636
1.359582
1.605749
1.542568
1.422763
1.508594
1.458526
1.648664
1.718998
1.770854
1.804829
1.959801
1.910925
2.044439
2.208948
2.162457
2.242923
2.535582
2.777576
3.251433
6.371737
39.729476
112.093687
300.486684
536.720753
959.486961
1015.805602
1015.805602
1015.805602
1015.805602
1015.805602
1015.805602
992.844105
586.969852
335.531831
141.537786
61.654449
21.789670
14.677644
14.647841
14.461875
14.992952
16.394854
19.236803
23.082495
32.631755
41.968822
56.168437
66.771507
78.752637
84.078908
87.619424
84.754825
76.550841
68.217516
56.071877
47.150850
37.315488
31.900406
26.978850
25.565624
23.747683
##ZVALUE=350
1.186728
1.252890
1.130700
1.264811
1.233816
1.130700
1.226664
1.153946
1.065731
1.319647
1.210570
1.314878
1.097918
1.167655
1.139641
1.177788
1.210570
1.368523
1.243949
1.309514
1.261830
1.470447
1.324415
1.275539
1.371503
1.379848
1.314878
1.363754
1.374483
1.575947
1.350641
1.379848
1.479983
1.326799
1.508594
1.370907
1.493692
1.369715
1.523495
1.624823
1.596808
1.540780
1.612902
1.657605
1.788735
1.878738
1.829863
1.907945
1.935959
2.203584
2.079606
2.222657
2.416968
2.510548
2.793670
3.180504
4.083514
18.806458
64.887404
222.082734
434.116721
871.269703
1015.805006
1015.805006
1015.805006
1015.805006
1015.805006
1015.805006
1015.805006
716.706514
436.136723
200.434923
92.110634
27.498603
15.327930
13.474822
13.810992
13.948679
14.425516
15.685558
18.123984
24.054646
29.452443
39.661527
47.994852
61.200857
70.106983
77.513456
79.899430
78.170896
72.705746
62.217712
54.282546
43.166876
36.094785
30.167699
##ZVALUE=355
1.010895
0.987649
0.895858
0.950694
1.013875
1.007915
0.927448
1.079440
0.994802
1.001954
1.075864
1.003742
0.920892
0.979900
1.094937
0.977516
1.013875
1.027584
1.125932
1.169443
1.132488
1.228452
1.114607
1.309514
1.251698
1.164675
1.164675
1.083612
1.264811
1.157522
1.137853
1.235604
1.265407
1.340508
1.193881
1.249909
1.243949
1.219511
1.410842
1.412630
1.333952
1.509786
1.316667
1.383424
1.555681
1.705885
1.769662
1.676679
1.606941
1.742840
1.697540
1.832843
1.938939
2.131462
2.068877
2.318621
2.566576
2.852678
3.310442
8.684993
32.505989
129.380822
271.371603
575.832725
901.366472
1015.731692
1015.731692
1015.731692
1015.731692
1015.731692
1015.731692
857.994556
540.368557
241.660476
115.083456
36.308765
17.169714
12.335777
12.584925
12.915730
13.310909
14.021993
15.189648
17.661452
20.594597
27.436614
34.375787
44.933558
53.498745
63.199997
69.130659
72.904825
72.427988
66.892505
61.173439
51.619411
##ZVALUE=360
1.038909
1.008511
0.994802
1.143813
1.215935
1.065731
1.105666
1.268983
1.297593
1.137853
1.191497
1.283884
1.178980
1.269579
1.145601
1.111627
1.114607
1.137853
1.162887
1.298785
1.183748
1.252890
1.201630
1.214743
1.213551
1.302958
1.221895
1.267791
1.387596
1.286864
1.248717
1.432896
1.394749
1.353621
1.444817
1.319647
1.359582
1.457930
1.506805
1.324415
1.367927
1.544952
1.395941
1.501441
1.605749
1.807809
1.741648
1.661777
1.803637
1.900792
1.886487
1.909733
1.956820
1.948476
2.088547
2.417564
2.396703
2.508759
2.718568
3.070831
3.159642
4.670620
14.078617
67.212582
172.572732
447.428823
748.883486
1015.805602
1015.805602
1015.805602
1015.805602
1015.805602
1015.805602
975.335836
666.137934
338.279605
173.577666
57.954788
24.305582
13.114810
12.599826
12.105703
12.536645
13.021827
13.259649
14.001727
15.176535
18.437505
22.466779
29.756427
37.519932
48.303604
55.347681
64.363480
67.629814
67.899823
##ZVALUE=365
1.050830
1.139641
1.088977
1.146793
1.131892
1.065731
0.808835
1.005530
1.179576
1.099706
1.075864
1.134872
1.071692
1.094937
1.072884
1.266599
1.229644
1.000762
1.265407
1.211762
1.148582
1.318455
1.233816
1.189709
1.264811
1.095533
1.243949
1.274943
1.245737
1.228452
1.312494
1.312494
1.220703
1.267791
1.391768
1.332760
1.319647
1.503825
1.534820
1.429915
1.330972
1.614690
1.615882
1.597404
1.442432
1.453757
1.721978
1.669526
1.808405
1.758933
1.595616
1.859665
1.828671
1.884699
1.936555
1.938939
1.939535
2.162457
2.106428
2.447963
2.657771
2.934933
3.142953
3.654957
6.425977
34.302473
94.831586
262.787938
501.204729
960.432887
1015.805006
1015.805006
1015.805006
1015.805006
1015.805006
1015.804410
871.931911
474.051833
256.837606
93.990564
38.255453
13.723969
11.685491
11.642575
11.277795
11.794567
11.988878
12.308955
13.059974
14.456511
16.702414
21.136999
25.741458
34.020543
41.183829
50.311685
##ZVALUE=370
1.051426
1.076460
1.054406
1.107454
1.029968
0.962615
0.943542
1.168847
1.062751
1.089573
1.134872
1.086593
1.149774
1.031756
1.134872
1.083612
1.055598
1.161695
1.195669
1.174808
1.114607
0.934601
1.297593
1.248717
1.270771
1.146793
1.000762
1.296997
1.090765
1.321435
1.135468
1.228452
1.225471
1.447797
1.396537
1.151562
1.240969
1.228452
1.281500
1.542568
1.257658
1.333952
1.353621
1.373887
1.439452
1.431704
1.533628
1.539588
1.421571
1.384616
1.514554
1.533628
1.617670
1.817942
1.648664
1.722574
1.975894
1.958609
1.942515
2.039671
2.060533
2.207756
2.481937
2.749562
2.751946
3.048778
4.313588
16.996861
56.907535
190.424919
370.149016
737.341642
1015.805006
1015.805006
1015.805006
1015.805006
1015.805006
1015.805006
1015.805006
607.023835
333.755612
127.597451
58.014989
20.049810
11.952519
10.677576
10.529757
10.812879
10.947585
11.281967
11.736751
12.873411
13.947487
16.459823
19.616485
25.249720
##ZVALUE=375
1.136661
1.155734
0.977516
1.123548
1.114607
0.982881
0.912547
1.007915
0.966787
1.017451
0.976920
1.089573
1.088977
1.124740
1.304746
1.080632
1.037717
1.087785
1.062751
1.012683
1.105666
1.242757
1.074672
0.979900
0.980496
1.041889
1.155734
1.213551
1.214743
1.285672
1.247525
1.205802
1.337528
1.172423
1.150966
1.261830
1.309514
1.151562
1.064539
1.311898
1.287460
1.112819
1.271963
1.313686
1.342893
1.364946
1.378655
1.492500
1.366735
1.403689
1.445413
1.594424
1.498461
1.422763
1.545548
1.572967
1.591444
1.744628
1.610518
1.703501
1.886487
1.944900
2.033710
2.081990
1.944900
2.349615
2.499819
2.874732
3.168583
8.953810
31.289458
116.418600
254.648924
578.677654
912.970901
1015.803814
1015.803814
1015.803814
1015.803814
1015.803814
1015.803814
746.812820
466.522574
222.021937
107.991695
33.864975
14.686584
10.001659
9.712577
9.743571
10.184646
10.486841
10.566711
11.314750
11.816621
12.584925
##ZVALUE=380
1.030564
0.998974
0.935793
0.998974
0.953674
1.100898
0.931621
0.940561
0.937581
1.208782
0.977516
1.056790
0.967979
1.001954
0.946522
0.997782
1.164675
1.219511
0.875592
1.040697
0.954866
1.082420
1.007915
1.076460
1.098514
1.013875
1.085997
1.145601
1.172423
1.174808
0.977516
1.070499
1.097918
1.109838
1.143813
1.167655
1.178980
1.082420
1.286864
1.084805
1.227856
1.242757
1.249909
1.280904
1.225471
1.248717
1.187921
1.349449
1.309514
1.151562
1.257658
1.285672
1.327991
1.169443
1.376867
1.424551
1.420975
1.449585
1.767874
1.685619
1.701713
1.623631
1.822710
1.696944
1.724958
2.018809
2.112985
2.224445
2.506971
2.720952
3.141761
4.864931
16.078949
79.502463
191.258788
462.125540
758.832693
1015.808582
1015.808582
1015.808582
1015.808582
1015.808582
1015.808582
928.002000
626.890659
309.863687
160.610676
55.227876
22.144914
10.109544
8.916855
8.956790
8.971691
8.885860
9.086728
9.355545
##ZVALUE=385
1.015663
0.959635
0.844598
1.023412
0.934601
1.060963
1.004934
1.056790
0.910759
0.916719
0.972748
0.925660
0.933409
0.994802
1.024604
0.943542
0.973940
1.055598
1.147985
1.028776
1.069903
1.246929
0.993609
0.975728
1.011491
1.009703
0.994802
1.089573
1.087785
1.100898
0.955462
1.179576
1.176000
0.958443
0.828505
1.057982
1.058578
1.103878
1.032948
1.143813
1.009703
1.099706
1.238585
1.197457
1.238585
1.223683
1.068711
1.107454
1.170635
1.257658
1.305938
1.247525
1.077652
1.303554
1.348853
1.349449
1.343489
1.513958
1.436472
1.408458
1.398921
1.491904
1.454949
1.605749
1.620650
1.779795
1.791716
1.818538
2.132654
2.364516
2.488494
2.678633
3.032684
3.518462
7.738471
43.371916
116.465688
311.231613
564.862490
987.032652
1015.805006
1015.805006
1015.805006
1015.805006
1015.805006
1015.805006
786.395669
424.838662
239.313841
95.528960
38.026571
11.388659
8.344650
7.989407
8.203983
8.113980
##ZVALUE=390
0.972748
0.932813
0.950694
1.040697
1.137853
0.979900
0.923872
1.114607
0.914931
1.074672
0.913739
0.994802
0.844598
0.971556
0.880957
0.886917
0.996590
0.922680
1.129508
0.952482
1.082420
1.098514
0.994802
0.973940
1.140833
1.110435
0.967979
1.018643
1.072884
0.989437
1.046658
0.892878
0.957847
1.089573
1.153946
0.991821
1.064539
1.126528
1.070499
1.008511
1.015663
1.098514
1.056790
1.089573
1.145601
1.262426
1.143813
1.023412
1.179576
1.196861
1.265407
1.120567
1.277924
1.050830
1.179576
1.228452
1.387596
1.291633
1.420975
1.467466
1.464486
1.384616
1.405478
1.478791
1.672506
1.541972
1.711845
1.884699
2.046824
2.327561
2.143979
2.357960
2.435446
2.621412
2.811551
2.977848
4.503727
23.280978
75.379610
239.388943
459.682941
871.589780
1015.808582
1015.808582
1015.808582
1015.808582
1015.808582
1015.808582
998.912454
621.134043
356.324911
141.458511
62.303543
16.725659
8.877516
7.719994
##ZVALUE=395
0.812411
1.011491
0.991821
0.866652
0.837445
0.921488
0.878572
1.093745
0.910759
0.906587
0.808835
0.915527
1.132488
1.033545
1.072884
0.974536
0.907779
0.773668
0.893474
0.983477
0.773668
0.966787
1.001954
0.975728
1.043677
1.041889
0.917912
1.154542
0.957847
1.063943
0.940561
0.911951
1.029968
1.065731
1.113415
1.027584
1.110435
0.985861
1.035929
1.113415
1.109838
1.187921
1.178980
1.113415
1.161695
1.186728
1.182556
1.118779
1.264811
1.239777
1.238585
1.196861
1.202822
1.095533
1.159906
1.400709
1.252890
1.287460
1.248717
1.411438
1.432896
1.375675
1.249909
1.315475
1.549721
1.596808
1.696944
1.809597
1.959801
2.091527
2.132654
2.332926
2.181530
2.243519
2.362728
2.347827
2.567768
2.753735
3.193617
13.290644
49.048662
173.897743
346.725583
692.545772
991.654992
1015.805006
1015.805006
1015.805006
1015.805006
1015.805006
1015.805006
759.792924
477.767587
221.410990
104.197860
31.925440
##ZVALUE=400
0.721812
0.698566
0.826716
0.766516
0.815988
0.860691
0.895858
0.842810
0.917912
0.846982
0.845790
0.940561
1.026988
0.913739
0.833869
0.886917
0.918508
0.947714
0.848770
0.868440
0.967979
0.855923
1.040697
0.987649
0.922680
0.926852
0.927448
1.043677
1.002550
1.062751
1.018643
0.939965
1.013875
1.059771
0.984669
1.124740
0.978708
1.097918
1.091957
1.065731
0.982881
1.048446
1.011491
1.044869
0.973940
1.041889
1.117587
1.007915
1.219511
1.061559
0.930429
1.155734
1.174808
1.205802
1.191497
1.193881
1.240969
1.215935
1.235604
1.219511
1.216531
1.298785
1.385808
1.403689
1.499653
1.402497
1.589656
1.632571
1.763701
1.855493
2.107620
2.051592
2.030730
2.012849
2.023578
2.069473
2.078414
2.191663
2.410412
2.648830
2.968907
7.375479
26.734471
102.276802
225.338936
516.536832
831.094980
1015.759706
1015.759706
1015.759706
1015.759706
1015.759706
1015.759706
894.284844
587.427616
293.551683
##END
