##TITLE=
##FORMAT=SPECTACLE-ASCII V-1.2
##DATA TYPE=ULTRAVIOLET SPECTRUM
##SECOND TYPE=ULTRAVIOLET SPECTRUM
##DATE=09/27/17
##TIME=14:00:15
##SPECTROMETER/DATA SYSTEM=SPECTACLE
##XUNITS=NM EM
##YUNITS=ENERGY
##YFACTOR=1
##FIRSTX=220
##LASTX=410
##NPOINTS=96
##3DDATA=Equidistant
##ZUNITS=NM EX
##FIRSTZ=210
##LASTZ=400
##ZPOINTS=39
##XYDATA=(Y..Y)
##ZVALUE=210
3.540516
3.113747
3.138781
3.654957
2.928972
3.330708
3.246665
3.157854
3.187656
3.199577
3.500581
3.363490
3.093481
3.229976
4.031658
3.419518
3.749728
4.673600
4.048944
4.682541
4.799962
5.646944
4.832745
5.594492
5.911589
7.161498
6.160736
6.166697
6.336570
7.123947
6.812811
7.435679
7.575750
6.940961
7.885695
8.237958
8.698702
7.251501
8.671880
9.304881
8.871555
9.167790
8.679628
9.572506
10.186434
9.747744
8.936524
9.864569
11.232495
11.386871
10.454655
10.457635
10.544658
11.461973
11.888742
10.713935
12.211800
10.796785
12.381673
11.815429
11.142492
12.811422
11.985898
12.759566
14.605522
13.416409
13.889670
16.062856
17.836690
20.024776
24.048686
28.612614
33.153892
38.593411
40.626526
46.456456
45.491457
47.477484
49.188733
44.894814
42.531490
39.615631
35.352707
28.806925
24.374723
19.314885
16.901493
15.350580
13.565421
13.243556
12.620687
11.872649
12.154579
12.834668
11.555552
11.964440
##ZVALUE=215
9.008646
9.079576
8.818507
8.074641
7.016659
4.696846
5.125999
5.729795
5.974770
5.956888
6.071925
5.368590
5.300641
3.921986
3.836751
3.712773
4.547834
4.151464
4.801750
5.542636
5.337000
5.602837
5.897880
6.124973
6.790757
6.873608
6.467700
7.673502
7.314682
7.513762
7.878542
7.035732
7.893443
8.708835
9.472966
10.008812
9.334683
9.536743
9.073615
9.935498
9.749532
11.113882
9.865761
11.469722
11.707544
12.314916
12.051463
12.276769
11.717677
11.297464
13.072491
12.148619
13.710856
12.709498
12.497902
13.064742
11.976957
13.785958
12.817979
13.777614
13.685822
13.686419
14.577508
15.969872
14.482737
15.854836
17.336607
18.851757
20.788908
22.534728
25.148988
29.574633
31.695962
36.820769
39.247870
41.006804
41.412711
41.680932
41.445494
37.542582
36.052465
31.013489
28.405786
25.992990
23.528934
18.585920
16.764998
14.758706
15.011430
15.587807
14.242530
12.858510
15.005469
14.243722
12.910962
13.312697
##ZVALUE=220
28.687716
29.275417
31.827688
33.569932
30.804873
27.050972
20.559430
14.595985
13.571978
11.944771
11.070967
12.668967
12.394786
10.634661
10.729432
7.806420
7.904768
6.089807
5.280972
5.069971
5.043745
5.498528
5.567670
6.321669
6.350875
5.392432
6.538630
6.915927
7.441640
7.724762
8.112788
8.469820
8.450747
10.216832
9.276867
9.863973
9.617805
11.433959
10.917783
10.894537
11.039972
11.423826
12.191534
12.124777
11.954904
13.668537
12.170672
12.961626
13.784766
12.659431
13.353825
14.781952
13.838410
15.453696
14.178753
14.989972
13.576746
15.294552
15.684962
16.025901
16.117692
17.064810
17.708540
14.996529
16.133785
17.189980
17.492771
19.382834
20.860434
22.926927
25.688410
28.512478
29.488802
34.058690
37.565827
34.634471
38.106441
36.686659
33.596754
34.020543
31.038523
28.121471
26.983619
23.593903
21.525621
19.970536
18.169880
16.862750
16.975999
16.482472
16.087890
14.485717
15.560985
16.629696
14.967918
14.954805
##ZVALUE=225
51.318407
53.903461
70.358515
95.847845
103.373528
106.105804
95.737576
74.036717
55.074692
39.000511
28.252602
23.231506
23.977757
25.585890
26.148558
24.873614
21.275878
15.706420
12.718439
10.176897
7.400513
6.776452
5.564690
5.638599
6.458759
6.624460
7.347465
7.636547
7.917881
7.994771
8.104444
8.861423
9.952784
9.249449
9.942651
10.115504
10.110736
10.961890
11.237860
12.782812
13.217926
13.570786
13.668537
14.110804
14.684796
14.689565
16.203523
16.659498
16.446710
18.756986
17.091632
17.827749
18.365979
18.950701
20.932555
19.626617
20.250678
20.486712
21.078587
21.579862
21.703839
22.924542
21.544695
22.757649
22.725463
22.760630
23.440719
25.440454
25.552511
27.515888
29.095411
32.592416
34.300685
37.765503
37.396550
39.778948
36.725998
37.274957
36.793947
33.407807
34.161806
32.256842
29.981732
29.400587
27.779937
25.829673
24.187565
24.089813
24.348497
23.730993
21.289587
23.204684
21.843910
22.029877
21.044612
20.970702
##ZVALUE=230
41.558743
44.762492
73.050857
121.705532
163.224936
209.629536
232.017636
233.478546
214.549899
183.562636
129.131675
87.973475
56.597590
44.842958
45.641661
48.652887
49.895644
45.303702
41.660666
35.547614
27.801991
18.728971
14.064908
10.256767
8.037686
7.095933
7.195473
7.611513
8.618832
9.037852
9.128451
9.093881
10.275841
11.837482
11.320710
11.742711
13.509989
13.942719
14.579892
14.587641
16.823411
16.687512
16.446710
18.711686
19.938946
19.678473
20.468831
20.344853
21.502972
22.858977
24.185777
24.107695
25.759935
27.602911
26.199818
26.016831
26.512742
28.482676
29.749870
28.696656
29.543638
30.007958
30.290484
29.705763
27.734637
30.625463
33.184886
33.369660
33.814907
38.666725
37.908554
41.837692
43.955445
45.965910
45.815706
44.182539
49.559474
47.626495
46.343803
43.855906
41.979551
41.656494
41.039586
39.215684
39.220452
36.725998
34.806728
36.699772
37.417412
33.680797
33.880472
33.678412
34.877658
35.279989
33.096671
33.086538
##ZVALUE=235
14.667511
15.059710
37.621856
69.047809
140.073895
206.528902
308.459997
380.249619
462.687016
456.441641
417.060852
346.103907
262.242556
167.252421
119.340420
81.961751
73.087811
76.280832
80.353618
79.940557
73.478818
67.782998
51.019788
39.697886
24.030805
18.562675
12.999773
11.225939
9.116530
9.799600
9.885430
10.585785
10.529757
12.809634
12.687445
13.875961
15.360713
13.463497
15.145540
16.282797
15.925765
18.173456
18.483996
21.582842
21.683574
23.067594
22.334456
22.703409
25.448799
26.374459
25.188923
27.901530
28.158426
30.373931
31.600595
30.972958
32.853484
33.440590
34.036636
34.095645
35.651922
34.859776
36.550760
36.335588
37.555695
38.862824
38.535595
40.463805
41.216612
46.674609
47.017932
50.576925
53.806901
58.894753
58.081746
57.318807
59.545636
59.309602
55.967569
56.988597
54.289699
54.048896
51.534772
51.967502
50.114989
50.941706
52.343607
48.105717
48.515797
48.062801
51.452518
50.693750
48.646927
47.499537
46.680570
45.656562
##ZVALUE=240
2.680421
2.919436
7.703900
17.735958
51.559806
100.573897
206.378698
312.075615
498.924851
613.185763
713.766813
735.004544
695.453882
562.719703
436.370969
279.628634
190.714598
124.857426
104.667544
101.286769
109.141469
112.511516
110.942721
100.017786
83.259940
65.836906
48.426986
33.303499
22.912621
18.785596
14.546514
12.437701
12.966990
12.965798
13.943911
14.005899
14.584661
14.276505
16.255975
17.839670
17.203689
18.092990
20.168424
22.196770
20.612478
24.598837
24.632812
24.772882
26.251674
26.593804
30.002594
29.090643
28.005838
31.402707
33.078790
33.547878
31.932592
34.271479
35.598874
37.343502
36.622882
39.301515
38.677454
39.744973
39.382577
42.192936
44.655800
46.596527
47.488809
49.132705
50.899982
55.051446
59.659481
61.893463
61.874986
64.026713
64.522624
67.175627
67.775846
65.815449
63.787699
62.523484
64.532757
63.107610
61.802864
63.438416
60.758591
60.600638
59.531927
60.698986
57.606697
60.468912
61.496496
59.329867
60.478449
59.574842
##ZVALUE=245
2.538562
2.410412
2.649426
2.529621
4.063845
15.715957
39.660931
108.439922
193.209648
322.015882
544.337630
705.820918
884.012580
913.545489
881.816745
773.665905
579.338670
427.653790
301.098824
172.114968
121.201873
101.252794
112.348795
126.558542
130.506754
125.077963
113.146901
94.349980
74.853897
53.284764
40.901899
28.133988
20.792484
15.724897
14.436841
14.889836
14.520884
15.018582
15.100837
14.795661
17.296672
17.736554
18.126965
19.451976
19.074678
21.270514
21.772981
24.092793
24.248958
23.419857
24.956465
27.200580
25.958419
26.916862
27.300715
28.550625
29.680729
29.507875
31.041503
31.342506
34.267902
34.878850
34.022927
37.318468
36.484599
39.646626
38.968921
43.541789
45.133829
46.155453
48.726797
50.558448
56.325793
57.557821
60.086846
62.614679
62.348843
61.497688
62.059760
64.633489
62.663555
63.072443
63.814521
60.334802
59.664845
62.188506
61.336756
61.679482
61.365962
61.288476
61.025620
63.246489
58.322549
56.806803
59.245825
59.574842
##ZVALUE=250
1.779795
2.067685
2.443790
2.302527
2.358556
2.586842
3.919601
8.834600
35.115480
77.343583
199.741721
335.893631
512.853861
766.121745
930.231810
1015.837789
1015.837789
976.145864
820.902586
576.623678
393.238664
250.258446
140.339732
105.786920
106.368661
124.229789
138.122439
140.288472
137.325525
124.021769
105.931759
83.078742
63.991547
40.327907
29.242635
21.008849
17.507672
15.182495
16.349554
16.599894
16.604662
16.731620
16.727448
18.269420
18.923879
20.284653
21.191835
21.032691
21.642447
21.860600
24.529696
24.461746
24.652481
25.565624
24.613738
27.906895
27.980804
28.236508
27.463436
29.261708
30.609965
31.472445
31.232834
33.785701
33.967495
35.174489
37.046671
37.849545
41.493773
42.654872
44.366717
47.181845
48.769712
52.376986
54.659843
57.723522
57.736635
57.204962
57.292581
58.371425
58.982968
59.711933
57.596564
55.521727
57.537556
56.847930
58.200955
59.028864
55.252910
57.438612
57.524443
58.000684
56.858659
57.832599
57.875514
57.771802
##ZVALUE=255
1.855493
1.921654
2.156496
1.858473
1.923442
1.911521
2.373457
2.087951
2.283454
4.625916
20.875931
56.641698
157.179832
278.698802
504.103899
714.823008
992.208719
1015.805006
1015.805006
1015.805006
1015.805006
783.231854
546.589494
308.108926
184.955001
110.781789
96.285939
112.933517
124.570727
142.961740
148.640871
140.950680
131.023526
105.197430
85.607767
59.114695
45.203567
28.538704
22.805929
18.186569
16.978979
16.914606
17.135739
18.634796
18.349886
18.739700
19.931793
21.013618
21.539927
22.653937
23.631454
23.355484
24.852753
25.467873
26.098490
26.252866
26.255846
27.711987
27.686954
27.903914
29.837489
29.759407
30.219555
31.610727
33.463836
32.855868
33.565760
34.663677
37.980676
39.771795
42.212605
43.075681
45.970678
48.240423
49.376488
50.461888
52.435994
52.517653
53.357482
52.730441
53.494573
54.891706
52.429438
53.386688
52.943826
54.986477
55.444837
55.556893
56.330562
53.910613
55.966973
53.703785
54.088831
54.718852
56.176782
54.891706
##ZVALUE=260
2.015829
1.979470
1.469851
1.908541
1.764894
1.854897
1.776814
2.073646
2.446771
2.266765
2.712607
3.586411
9.783506
39.209723
93.793869
231.392980
392.767787
668.238997
915.441513
1015.805006
1015.805006
1015.805006
1015.805006
1012.619734
706.186891
478.926897
270.574689
160.693526
97.580552
91.181993
102.876425
130.762458
146.015882
153.906941
152.708888
133.548975
112.755895
85.887909
63.159466
44.295788
34.202933
23.348927
19.557476
18.960834
19.831657
20.230412
21.445751
21.432638
22.690892
24.606586
24.358630
24.856925
26.078820
27.627945
27.424693
29.427409
26.792884
29.073954
28.741956
29.950738
29.492974
30.872822
31.123757
31.385422
33.421516
33.664703
34.326911
35.008788
36.418438
39.168000
40.386915
43.325424
43.752789
45.902729
48.615932
48.569441
49.300790
50.163865
50.908923
49.736500
51.621795
49.262643
51.598549
52.545667
51.442981
52.166581
53.287745
52.497983
52.016973
51.973462
52.337646
54.436922
53.510666
53.818822
53.976774
53.882599
##ZVALUE=265
1.557469
1.655817
1.525879
1.518726
1.699924
1.817942
1.974702
1.818538
1.866817
1.950860
2.132654
2.591610
2.605915
2.769828
5.719662
27.616620
67.948699
179.077983
324.325562
626.194477
904.986858
1015.805006
1015.805006
1015.805006
1015.805006
1015.805006
911.719799
651.745796
363.993645
216.866732
127.537847
80.114603
84.787607
114.515424
135.661960
154.065490
161.095858
150.392652
140.895844
115.611553
93.813539
65.082908
49.524903
34.399629
27.293563
25.316477
23.347735
24.177432
26.309490
25.931597
27.441978
28.893948
28.984547
28.790832
28.823614
30.414462
30.963421
31.846762
31.898618
32.532811
32.989979
32.657981
32.779574
34.220815
35.353899
34.564734
34.842491
36.301613
37.874579
38.413405
41.453838
42.223930
42.986870
43.297410
45.091510
46.649575
48.583746
47.070980
47.482848
48.101544
48.837662
49.502850
48.667789
47.653913
50.276518
50.074458
49.839616
51.163435
50.865412
49.778819
50.135851
52.592754
51.888824
51.632524
52.717924
51.128864
##ZVALUE=270
1.377463
1.579523
1.691580
1.633763
1.588464
1.756549
1.794696
1.893640
1.904964
1.812577
1.888871
1.940727
2.136827
2.520680
2.407432
2.522469
3.451705
13.406873
38.999915
130.582452
263.557434
483.782887
923.752785
1015.805006
1015.805006
1015.805006
1015.805006
1015.805006
1015.805006
990.223885
683.024526
333.733559
183.425546
84.926486
71.064830
91.556907
112.732649
142.069459
158.744454
164.800882
162.897706
143.242478
124.915838
96.024871
74.620843
52.658916
41.651726
33.130646
30.369759
29.169917
29.987693
31.670928
31.117797
32.847524
33.084750
33.682585
34.999847
35.321712
34.940839
33.751726
35.527945
35.494566
36.320686
36.907792
36.877990
37.261844
37.474632
37.985444
39.200783
40.656924
41.406751
42.502880
45.121908
44.980645
45.731664
47.460794
46.634674
47.414899
46.438575
46.279430
47.133565
47.806501
47.614574
47.516823
47.443509
49.627423
48.636794
48.860908
49.271584
49.000978
49.032569
48.878789
49.212575
49.476624
50.554872
49.343705
##ZVALUE=275
1.401901
1.161695
1.647472
1.425743
1.443624
1.568794
1.478791
1.497865
1.572967
1.734495
1.687407
1.666546
1.709461
1.906753
1.986623
2.347827
2.482533
2.437830
2.895594
6.625652
23.063421
71.218610
221.080780
425.465703
817.577839
1015.805006
1015.805006
1015.805006
1015.805006
1015.805006
1015.805006
1015.805006
875.030756
454.164743
259.481668
110.532641
69.931746
68.316460
90.801716
117.567778
140.143633
159.407854
168.527961
161.165595
149.358511
123.137832
105.137825
77.381730
63.554645
48.017502
40.981770
37.511587
34.618974
35.519600
35.802722
37.511587
37.163496
38.437843
37.578940
38.980842
38.176775
39.521456
39.004683
39.391518
39.613843
38.313866
39.692521
40.302873
41.404963
41.589737
42.866468
42.825937
44.192672
45.538545
46.967864
47.108531
47.333837
47.480464
47.323704
46.576858
46.464801
47.212839
47.157407
46.167970
46.534538
47.892928
48.758984
47.622919
47.404766
48.544407
47.606826
47.719479
48.341751
48.215985
46.458840
48.549771
##ZVALUE=280
1.352429
1.222491
1.331568
1.363754
1.019835
1.349449
1.400709
1.245737
1.320839
1.410842
1.439452
1.486540
1.442432
1.769662
1.682639
1.964569
1.846552
2.292991
2.301931
2.220869
2.555847
3.052950
15.020967
51.882863
170.973539
326.736569
633.066893
935.484767
1015.771627
1015.771627
1015.771627
1015.771627
1015.771627
1015.771627
959.597826
549.724698
328.041911
146.543980
78.698993
55.318475
67.167878
95.365644
118.182898
144.353509
160.321593
170.034766
164.362788
149.527788
129.629970
103.068948
84.678531
65.617561
53.276420
44.511557
40.984750
38.456917
37.549734
39.292574
39.461851
40.148497
40.594935
40.493608
40.069818
40.687919
40.190816
40.494800
41.636825
41.313767
42.088628
42.677522
43.214560
44.611692
44.747591
44.591427
46.535730
46.623945
47.421455
46.054721
45.922995
46.103001
46.292543
46.586990
46.385527
46.126842
45.957565
46.694875
46.777725
46.678782
47.547817
47.028661
46.074986
45.916438
46.604872
46.484470
45.836568
45.425892
##ZVALUE=285
1.105666
1.222491
1.365542
1.133680
1.113415
1.208782
1.303554
1.321435
1.439452
1.479983
1.370907
1.352429
1.535416
1.498461
1.353621
1.679659
1.678467
1.807809
1.723766
2.052784
2.078414
2.305508
2.480745
2.827644
7.579923
25.592446
91.975927
196.775794
436.129570
714.023709
998.125672
1015.805006
1015.805006
1015.805006
1015.805006
1015.805006
1015.804410
753.828883
472.279787
227.574706
117.337704
54.620504
48.462749
66.986680
88.696480
119.955540
137.878656
160.162449
167.275667
163.874626
153.391957
129.385591
110.685825
85.631609
70.361495
54.564476
47.069788
41.803718
39.183497
39.320588
39.507747
39.141774
39.730668
40.372610
40.743947
39.978623
40.723681
41.203499
42.211413
43.684840
42.721629
43.813586
43.754578
45.239925
46.653748
46.430826
46.182871
46.569705
46.888590
46.663880
45.727491
46.676993
45.487881
47.318935
46.075583
46.678782
47.253966
46.300888
45.886636
46.015978
46.554804
45.294762
45.438409
44.753551
45.770407
45.705438
##ZVALUE=290
1.005530
1.111627
1.205802
1.239777
1.206994
1.237988
1.083612
1.189709
1.253486
1.298785
1.408458
1.262426
1.497865
1.229644
1.484752
1.497865
1.573563
1.611710
1.757741
1.696944
1.843572
1.788735
2.237558
2.180934
2.482533
2.784729
3.840923
10.963678
50.711632
126.652718
258.825421
572.069883
901.023746
1015.807986
1015.807986
1015.807986
1015.807986
1015.807986
1015.807986
958.093405
637.010932
322.216749
172.299743
67.874789
41.982532
48.233867
62.446594
87.929964
109.254718
135.043859
151.068568
161.495805
160.022974
145.593882
129.644871
104.176998
84.203482
65.461993
52.308440
43.909550
40.246844
36.925673
36.448836
37.504435
37.076473
38.519502
38.978457
39.580464
40.583611
41.290522
42.196512
41.889548
42.854548
43.132901
44.255853
44.917464
44.681430
45.160651
44.738650
45.228601
45.533776
44.862628
45.185685
45.545697
46.080947
46.283603
45.114756
45.863986
45.154691
45.010448
44.271946
44.891834
43.097734
44.203997
44.676661
44.822693
##ZVALUE=295
1.187921
1.135468
1.177788
1.152754
1.163483
1.149774
1.234412
1.247525
1.147985
1.204610
1.386404
1.275539
1.330972
1.452565
1.447797
1.570582
1.552701
1.600981
1.594424
1.727939
1.788735
1.855493
1.686811
2.283454
2.350807
2.447963
2.597570
2.870560
3.037453
5.492568
29.097795
84.166527
195.365548
480.665565
794.741511
1015.912890
1015.912890
1015.912890
1015.912890
1015.912890
1015.912890
1015.912890
808.773041
423.856974
235.926509
91.930628
46.547651
33.194423
41.060448
59.656501
77.745914
106.682777
124.022961
144.994855
152.187943
149.006844
138.493776
119.639635
101.662874
78.382492
63.267946
48.752427
41.648746
36.976933
35.229921
34.600496
35.493970
35.483837
37.194490
37.966967
39.337873
40.584803
40.962696
41.713715
42.846799
42.836666
43.664575
44.526458
43.540001
44.065714
44.735670
44.585466
45.554638
44.979453
45.677423
45.044422
45.042634
45.016408
44.869781
42.962432
44.256449
43.141842
44.424534
42.805672
43.307543
42.284727
##ZVALUE=300
0.957847
0.871420
1.017451
1.002550
0.924468
1.061559
0.932813
0.990629
0.939965
1.118779
1.213551
1.365542
1.127720
1.305938
1.046658
1.366735
1.345873
1.271963
1.118779
1.365542
1.366735
1.519918
1.646876
1.748800
1.693964
1.916885
2.057552
2.218485
2.267957
2.444983
2.782941
3.264546
8.614659
50.107837
132.532716
358.863473
631.645918
1015.805006
1015.805006
1015.805006
1015.805006
1015.805006
1015.805006
1015.805006
995.520949
582.776666
345.755816
153.061748
71.386695
30.634999
28.126836
37.272573
50.313473
72.831511
93.256831
117.312670
132.994652
143.371820
142.354965
131.273866
117.334723
94.899535
77.805519
59.469938
48.692822
39.769411
36.076903
33.821464
34.371614
34.449697
35.598874
36.804676
37.570596
38.945675
39.835572
41.490793
41.087866
42.633414
42.055845
43.179989
43.551922
43.726563
44.067502
44.635534
44.808984
43.661594
44.716597
43.920875
44.085979
43.729544
43.500662
42.784810
42.869449
42.970777
41.827559
40.624738
##ZVALUE=305
1.027584
1.232624
1.068711
1.004934
0.975728
1.115799
0.852942
0.848770
0.849962
1.045465
0.937581
1.085997
1.232624
1.295805
1.184940
1.306534
1.332760
1.302958
1.192689
1.366735
1.373887
1.517534
1.457930
1.617670
1.594424
1.739860
1.679659
1.913905
1.902580
1.933575
2.306700
2.395511
2.579689
3.187656
5.112886
30.101538
86.277723
259.296894
483.502746
921.046734
1015.813947
1015.813947
1015.813947
1015.813947
1015.813947
1015.813947
1015.813947
766.512752
472.980738
213.920474
105.487704
37.091970
22.858977
26.319623
33.482909
50.635934
66.957474
91.015697
108.325481
126.807690
134.582520
134.888887
126.670599
109.249949
93.135834
71.905851
58.962703
46.808720
40.876865
36.001801
35.524964
35.329461
37.034750
38.731694
38.511753
39.456487
40.996671
41.842461
41.369796
42.536855
42.404532
44.139624
44.158697
44.581890
45.155883
44.499636
44.729710
44.369698
44.901967
43.724775
43.498874
43.235421
43.135881
41.770935
40.850639
42.557716
##ZVALUE=310
0.896454
0.827909
0.985861
0.712872
1.100898
0.956655
0.887513
1.051426
0.947714
1.014471
0.932813
0.942945
0.993609
1.058578
0.937581
1.035929
1.225471
1.040697
1.097918
1.183748
1.494884
1.178980
1.317859
1.386404
1.431704
1.193881
1.366735
1.668930
1.562834
1.705885
1.738667
2.118945
2.174973
2.392530
2.691746
2.805591
3.487468
13.448000
46.144724
159.234405
326.098800
700.438619
1015.805006
1015.805006
1015.805006
1015.805006
1015.805006
1015.805006
1015.805006
997.100472
684.692860
332.763791
174.490809
60.846806
27.561784
19.205809
22.781491
31.812787
42.809844
62.620640
79.496503
102.859735
116.391778
127.023458
130.326748
122.997761
109.574795
91.535449
76.210499
61.012506
50.084591
42.863488
39.479733
37.747622
37.885904
37.783980
39.162636
39.985776
40.279627
41.348934
42.399764
42.932630
43.494701
43.699741
44.712424
44.931769
44.663548
44.141412
43.946505
43.383837
43.055415
43.199658
42.726994
42.709708
42.893887
42.852759
##ZVALUE=315
0.922680
0.829697
0.888705
0.976920
0.989437
1.048446
0.877976
0.974536
0.955462
0.843406
0.946522
0.950694
1.075864
1.170635
1.029968
1.164675
1.070499
1.217723
1.053810
1.304746
1.264811
1.308918
1.064539
1.204610
1.454949
1.349449
1.470447
1.447797
1.529455
1.616478
1.707673
1.713634
2.009869
2.036691
2.099872
2.355576
2.450943
2.723932
3.120899
6.470680
23.903847
101.951957
230.214000
537.863970
900.262594
1015.856862
1015.856862
1015.856862
1015.856862
1015.856862
1015.856862
1015.856862
928.511620
483.705997
258.505940
91.566443
39.047003
18.326640
18.170476
22.581816
28.996468
43.238997
56.111813
77.125430
93.879700
113.621950
121.770501
125.663877
121.017694
107.415915
93.605518
76.303482
63.115954
51.050782
44.713616
40.996671
39.504766
39.773583
40.301681
40.952563
41.849613
42.850971
42.907596
43.245554
44.273734
44.594407
44.598579
44.351816
43.922663
43.799877
43.962598
43.124557
42.088628
42.684674
41.840672
42.012930
##ZVALUE=320
0.743866
0.789762
0.823736
0.937581
0.854731
0.795722
0.870824
0.901818
1.102686
0.912547
0.988841
0.967979
1.052618
1.053810
1.063943
0.780821
1.002550
1.093745
1.082420
0.839829
0.911951
1.055598
1.068711
1.138449
1.193881
1.164675
1.267791
1.178980
1.396537
1.401901
1.492500
1.477599
1.707673
1.581907
1.717806
1.831651
2.037883
2.044439
2.220869
2.254844
2.913475
3.876686
10.596514
56.236982
143.621564
381.162763
656.241775
1015.797853
1015.797853
1015.797853
1015.797853
1015.797853
1015.797853
1015.797853
1015.797853
622.938871
351.850986
146.194696
65.080523
22.376776
16.121864
17.614961
20.704865
28.319955
37.857890
55.151582
72.323680
90.816617
106.183887
119.311810
121.574998
117.261410
107.546449
90.634823
76.849461
60.723424
52.594543
44.914484
42.261481
40.058494
39.590001
40.388703
40.638447
41.711926
42.021871
42.731762
43.467879
42.756796
42.917728
43.229461
42.007565
41.876435
42.619705
42.133927
41.966438
42.076707
##ZVALUE=325
0.804663
0.780821
0.800490
0.653863
0.890493
0.830889
0.749826
0.779629
0.894666
0.802875
0.704527
0.891685
0.990629
0.901818
0.856519
1.106858
0.898838
1.031756
0.930429
0.977516
1.047850
0.957847
1.122952
1.110435
1.021624
1.096725
1.192689
1.351833
1.434684
1.385808
1.296997
1.367927
1.378655
1.539588
1.547933
1.544952
1.827478
1.897812
2.003908
1.961589
2.255440
2.563596
2.631545
3.085732
5.880594
37.027001
97.256899
261.251926
476.998687
924.973488
1015.805006
1015.805006
1015.805006
1015.805006
1015.805006
1015.805006
1015.805006
801.534653
479.967594
208.669901
98.581910
30.750632
17.127991
15.892982
17.350912
21.725893
27.505755
39.188862
53.367615
72.898865
88.478923
105.031729
113.937855
116.919875
111.648440
98.785758
87.730885
72.135925
61.923862
50.144792
45.674443
42.034984
40.693879
40.320754
40.623546
40.372610
40.922761
40.868521
40.766597
41.701794
41.174889
41.666627
41.401982
40.594935
41.069984
40.998459
##ZVALUE=330
0.730753
0.716448
0.884533
0.752807
0.842810
0.750422
0.773668
0.659823
0.787973
0.788569
0.810623
0.875592
0.853539
0.878572
1.005530
0.912547
0.755787
0.761747
0.950694
0.924468
0.751615
1.010895
0.820756
1.000762
0.967979
0.935793
1.070499
1.142621
1.250505
1.341701
1.342893
1.378655
1.297593
1.319647
1.407862
1.647472
1.494884
1.556873
1.507998
1.755953
1.881719
1.895428
2.037883
2.144575
2.468824
2.767444
3.490448
15.088916
50.565004
172.199607
339.218378
708.615780
1013.731956
1015.805602
1015.805602
1015.805602
1015.805602
1015.805602
1015.805602
971.349478
636.430979
292.289853
144.677758
51.097870
22.282600
15.648603
16.275644
18.254519
21.811724
29.869676
38.303733
54.042935
68.527460
87.475777
101.305842
111.510754
112.549663
106.482506
98.590851
82.935691
71.787834
57.881474
50.586462
43.751001
41.554570
39.468408
39.034486
39.224625
39.168000
38.989782
39.386749
39.504766
39.718747
39.897561
39.506555
39.756894
##ZVALUE=335
0.804663
0.667572
0.562668
0.891685
0.695586
0.858903
0.728965
0.615716
0.742674
0.569820
0.864863
0.675917
0.814795
0.809431
0.779629
0.850558
0.839829
0.905991
0.834465
0.800490
0.811815
0.923872
0.841618
0.879765
0.955462
0.940561
1.051426
1.098514
1.011491
1.178980
1.177788
1.052618
1.384616
1.260638
1.255870
1.375675
1.252890
1.439452
1.548529
1.739860
1.538992
1.747608
1.626611
1.910925
1.890659
2.107620
2.364516
2.537966
2.957582
7.161498
26.397705
106.749535
228.955746
524.750352
858.481526
1015.805006
1015.805006
1015.805006
1015.805006
1015.805006
1015.805006
1015.804410
824.555755
427.770019
220.489502
73.132515
31.291842
16.874671
15.909672
17.631650
19.067526
23.437738
28.738976
40.064454
51.171780
69.068670
81.353784
96.138716
103.199482
105.732679
102.458000
91.905594
82.347989
68.952441
59.411526
49.667954
44.669509
40.244460
38.239956
37.383437
37.460923
37.169456
37.455559
37.490726
37.301779
37.564635
##ZVALUE=340
0.663996
0.718832
0.592470
0.730753
0.760555
0.803471
0.793934
0.658631
0.705719
0.704527
0.797510
0.759959
0.816584
0.714660
0.631809
0.735521
0.751615
0.763535
0.772476
0.665784
0.879765
0.888705
0.809431
0.865459
0.976920
0.857711
1.119971
0.890493
0.877976
1.037717
0.943542
1.031756
1.100898
1.192689
1.302958
1.312494
1.281500
1.270771
1.246929
1.228452
1.249909
1.388788
1.645684
1.639724
1.665950
1.832843
1.939535
2.047420
2.174973
2.700686
2.734661
4.053712
12.117624
63.563585
159.042478
405.749679
694.226027
1015.799642
1015.799642
1015.799642
1015.799642
1015.799642
1015.799642
1015.799642
984.519720
537.553430
297.067761
119.254589
47.577620
18.217564
15.804768
16.806722
18.002987
20.456910
23.192763
30.082464
37.250519
50.279498
63.354969
79.804659
90.731978
99.864602
100.526810
96.612573
89.632869
77.301860
67.564845
56.258440
49.030781
42.809844
39.317608
36.866665
35.468936
35.405755
35.826564
35.990477
##ZVALUE=345
0.705719
0.698566
0.608563
0.674725
0.672936
0.762939
0.706911
0.685453
0.758767
0.656843
0.675917
0.803471
0.611544
0.728965
0.652671
0.716448
0.729561
0.805855
0.707507
0.670552
0.665784
0.641942
0.860691
0.921488
1.049638
0.908971
0.794530
0.890493
1.119971
1.000762
0.951886
0.862479
0.886917
0.936985
0.961423
0.885725
1.003742
1.150966
1.207590
1.142621
1.231432
1.422763
1.379848
1.422763
1.407862
1.356602
1.629591
1.674891
1.848936
2.035499
2.085567
2.297759
2.582669
2.840757
7.313490
29.275417
121.616721
253.470540
542.874932
857.281685
1015.805602
1015.805602
1015.805602
1015.805602
1015.805602
1015.805602
1015.805602
780.929923
367.535949
181.916952
59.102774
25.815964
16.460419
16.445518
17.290711
17.572641
19.546747
22.032857
28.606653
35.701990
48.691630
59.980750
73.365569
83.353519
91.957450
94.159842
91.668963
85.108876
75.065494
65.125823
53.951740
47.715902
40.419698
36.722422
34.829974
34.322739
##ZVALUE=350
0.709891
0.603795
0.674725
0.606775
0.703931
0.627637
0.673532
0.673532
0.683665
0.644922
0.766516
0.700951
0.781417
0.689626
0.743866
0.562668
0.729561
0.713468
0.789762
0.870824
0.740886
0.865459
0.714660
0.909567
0.757575
0.902414
0.755787
0.868440
0.783801
0.831485
0.926852
1.043677
0.970960
1.012683
0.893474
0.883937
0.919700
1.087785
1.155734
1.015663
1.030564
1.099706
1.217723
1.367927
1.303554
1.457930
1.443624
1.558661
1.464486
1.637936
1.641512
1.844764
1.945496
2.171993
2.509952
2.724528
3.743768
19.469857
62.859654
197.985768
378.900766
762.988925
1015.805006
1015.805006
1015.805006
1015.805006
1015.805006
1015.805006
1015.805006
829.535723
511.083007
235.857964
110.125542
33.039451
17.386675
15.382767
15.986562
16.231537
17.176867
18.894672
21.895766
27.493834
33.104420
44.100881
53.495765
67.599416
76.051950
84.623694
87.189674
85.238814
79.982877
70.535541
62.048435
52.118897
45.194626
39.120913
##ZVALUE=355
0.565648
0.669956
0.607967
0.745654
0.726581
0.632405
0.731945
0.607967
0.668764
0.868440
0.650883
0.833869
0.781417
0.811815
0.686646
0.661612
0.753999
0.782609
0.730753
0.756979
0.934601
0.869632
0.881553
0.742674
0.830889
0.717640
0.860691
0.605583
0.758767
0.954866
0.891685
0.967979
0.863671
0.902414
0.922680
0.909567
1.104474
0.941753
1.032948
0.965595
1.228452
1.246929
1.221895
1.082420
1.300573
1.154542
1.357794
1.311898
1.324415
1.338720
1.407862
1.724958
1.856685
1.853704
2.033710
2.087951
2.306700
2.575517
2.878904
9.025931
35.152435
138.039589
279.172659
578.346848
914.056897
1015.805006
1015.805006
1015.805006
1015.805006
1015.805006
1015.805006
951.164961
603.087544
266.408920
128.226876
41.320920
19.845963
14.613867
14.871955
15.165806
15.780926
16.989708
18.642545
21.268725
24.731755
31.521916
38.995743
49.668550
59.478879
69.234967
75.784922
79.602003
79.347491
73.765516
67.383647
57.957768
##ZVALUE=360
0.723600
0.681877
0.568628
0.820756
0.749826
0.910759
0.695586
0.757575
0.735521
0.747442
0.649691
0.793934
0.642538
0.849962
0.885725
0.925660
0.759959
0.753999
0.743866
0.814795
0.850558
0.738502
0.713468
0.710487
0.925660
0.816584
0.718832
0.798702
0.847578
0.788569
0.917912
0.925660
0.911951
0.956655
0.901818
0.982881
1.072884
1.011491
1.141429
0.934601
0.892878
1.153946
1.191497
1.182556
1.234412
1.216531
1.247525
1.414418
1.566410
1.533628
1.622438
1.654625
1.581907
1.735687
1.811981
1.879930
1.994967
2.103448
2.413988
2.757907
2.816916
4.723668
14.683604
72.116852
177.783370
440.422893
729.340911
1015.805006
1015.805006
1015.805006
1015.805006
1015.805006
1015.805006
1015.805006
765.367746
370.733738
192.011595
70.711970
29.067993
14.765859
14.255643
14.451742
14.928579
15.397668
16.140938
18.182993
19.416809
22.963881
26.867986
34.385920
41.822791
52.614808
61.005950
68.941712
72.897673
72.756410
##ZVALUE=365
0.642538
0.714660
0.630617
0.736713
0.797510
0.836849
0.629425
0.682473
0.638962
0.593662
0.667572
0.569820
0.857711
0.695586
0.764728
0.702739
0.880957
0.778437
0.783801
0.716448
0.861883
0.640750
0.791550
0.779629
0.853539
0.859499
0.860691
0.696778
0.772476
0.962615
0.875592
0.877976
1.109838
1.029968
0.983477
1.124740
1.000762
1.056790
1.020432
0.999570
0.957847
1.067519
1.081824
1.057982
1.176596
1.170635
1.300573
1.200438
1.345873
1.452565
1.223683
1.437664
1.433492
1.615882
1.676679
1.599789
1.868606
1.976490
1.973510
2.149940
2.256632
2.661943
2.700686
3.422499
6.299615
37.105680
103.860497
283.166766
532.369018
976.366997
1015.805006
1015.805006
1015.805006
1015.805006
1015.805006
1015.805006
929.978490
514.706969
278.420448
101.194978
41.143894
15.638471
13.117790
13.334751
13.668537
14.290810
14.749765
15.207529
15.975833
18.396974
20.184517
24.680495
29.739738
38.302541
45.862794
55.151582
##ZVALUE=370
0.681877
0.654459
0.634789
0.660419
0.774860
0.738502
0.651479
0.771880
0.807643
0.723600
0.613928
0.760555
0.562668
0.735521
0.628829
0.752807
0.683665
0.728965
0.839829
0.735521
0.812411
0.838637
0.905991
0.726581
0.883937
0.898838
0.751615
0.775456
0.722408
0.870824
0.874996
0.863671
0.872612
0.882745
1.076460
0.979900
0.870824
1.036525
1.064539
0.979900
1.052618
1.090765
0.959635
0.864863
1.072884
1.072884
0.868440
1.233816
1.306534
1.252890
1.316667
1.465678
1.309514
1.376867
1.280904
1.547933
1.535416
1.704693
1.595616
1.749992
1.804829
2.043843
2.174973
2.323985
2.429485
2.866983
3.815889
16.913414
58.246851
200.935006
389.642715
765.159726
1015.808582
1015.808582
1015.808582
1015.808582
1015.808582
1015.808582
1015.808582
627.294779
350.904465
137.677789
63.547492
22.740960
13.114810
12.291670
12.593865
12.774467
13.139844
13.960600
14.247894
15.184879
16.715527
19.093752
21.801591
27.181506
##ZVALUE=375
0.635982
0.712872
0.720620
0.572801
0.736713
0.692606
0.694990
0.617504
0.644922
0.599623
0.677705
0.776649
0.577569
0.650883
0.836849
0.558496
0.809431
0.732541
0.675917
0.612736
0.669956
0.687838
0.744462
0.733733
0.772476
0.558496
0.836849
0.861883
0.795722
0.765920
0.779629
0.763535
0.776649
0.807643
0.872612
0.880957
0.960827
0.846982
0.918508
0.808835
1.035929
0.891685
1.079440
0.819564
1.046658
0.909567
0.982881
1.105666
1.236796
1.055598
1.169443
1.017451
1.098514
1.232624
1.053810
1.081824
1.167655
1.279712
1.399517
1.308918
1.471639
1.517534
1.662970
1.817942
1.906753
2.120733
2.192855
2.441406
3.099442
8.703470
30.322671
115.844011
258.435607
607.414842
960.997939
1015.807986
1015.807986
1015.807986
1015.807986
1015.807986
1015.807986
794.688463
501.492620
244.327784
121.599436
38.313866
16.857982
11.331439
11.415482
11.932850
11.962652
12.542605
12.933612
13.578534
13.810992
15.262961
##ZVALUE=380
0.604987
0.492930
0.534654
0.531673
0.601411
0.605583
0.631809
0.576973
0.686646
0.644922
0.679493
0.610948
0.681877
0.707507
0.581741
0.679493
0.486970
0.520945
0.627637
0.739694
0.776649
0.705719
0.783801
0.799894
0.608563
0.705719
0.664592
0.775456
0.658631
0.797510
0.695586
0.778437
0.733733
0.791550
0.780821
0.743866
0.780821
0.825524
0.796914
0.818968
0.805855
0.891685
0.861883
0.857711
0.670552
0.779629
0.845790
1.005530
1.036525
0.891685
0.926852
1.035929
1.034737
1.091957
1.129508
1.140833
1.097918
1.260638
1.260638
1.083612
1.245737
1.325607
1.457930
1.453757
1.326799
1.800656
1.886487
2.107620
2.189875
2.794862
2.978444
5.033612
18.166900
85.883737
196.115971
455.346704
767.871737
1015.806794
1015.806794
1015.806794
1015.806794
1015.806794
1015.806794
997.207761
700.148940
343.438983
175.180435
60.349703
25.037527
11.795759
10.835528
10.659695
11.080503
11.298656
11.857748
11.833906
##ZVALUE=385
0.450611
0.549555
0.551939
0.611544
0.481606
0.479817
0.486970
0.506639
0.503659
0.611544
0.693798
0.525713
0.661612
0.710487
0.560880
0.676513
0.581741
0.755787
0.657439
0.680685
0.635982
0.622869
0.522733
0.618696
0.511408
0.593662
0.789762
0.667572
0.626445
0.667572
0.617504
0.813603
0.575781
0.710487
0.640750
0.752807
0.690818
0.613928
0.794530
0.742674
0.805855
0.775456
0.689626
0.838637
0.793934
0.780821
0.682473
0.836849
0.882745
0.865459
0.855923
0.797510
0.912547
0.915527
0.952482
0.995994
0.938773
1.072884
0.977516
0.980496
1.221895
1.168847
1.156926
1.286864
1.387596
1.480579
1.575947
1.757741
1.670718
1.932979
2.207756
2.638698
2.798438
3.263950
8.096695
46.835542
123.741627
321.747661
584.546924
1010.922790
1015.803814
1015.803814
1015.803814
1015.803814
1015.803814
1015.803814
917.547941
492.711663
275.546908
108.625889
42.880774
13.705492
9.974837
9.457469
9.802580
10.014772
##ZVALUE=390
0.720620
0.738502
0.647902
0.476837
0.752807
0.669956
0.750422
0.730753
0.794530
0.773668
0.628829
0.683665
0.598431
0.694990
0.675917
0.613928
0.823736
0.630617
0.710487
0.592470
0.775456
0.679493
0.620484
0.687838
0.694990
0.698566
0.890493
0.741482
0.733733
0.701547
0.746846
0.928640
0.878572
0.835657
0.696778
0.849962
0.996590
0.779629
0.766516
0.824928
0.947714
0.830889
0.677705
0.781417
0.835657
0.826716
0.841618
0.980496
0.940561
0.959635
0.999570
0.960827
0.987649
1.010895
0.950694
1.024604
1.072884
1.271963
1.128912
1.109838
1.286864
1.071692
1.232624
1.291633
1.344681
1.421571
1.591444
1.796484
1.903772
2.013445
2.263784
2.212524
2.536774
2.556443
2.624989
2.832413
4.334450
24.356842
80.218911
249.610543
476.967692
918.331742
1015.932560
1015.932560
1015.932560
1015.932560
1015.932560
1015.932560
1015.932560
722.386837
418.928862
168.448687
74.119568
20.312667
10.545850
9.037852
##ZVALUE=395
0.534654
0.484586
0.515580
0.591874
0.533462
0.543594
0.488758
0.397563
0.504851
0.470877
0.544786
0.644922
0.526905
0.712872
0.548959
0.722408
0.593662
0.565648
0.515580
0.542998
0.556707
0.459552
0.597835
0.625849
0.547767
0.613928
0.535846
0.533462
0.665784
0.641942
0.557899
0.789762
0.667572
0.731945
0.609756
0.712872
0.688434
0.801682
0.793934
0.749826
0.656843
0.739694
0.704527
0.795722
0.761747
0.558496
0.616908
0.775456
0.820756
0.688434
0.864863
0.800490
0.842810
0.683665
0.972748
1.030564
0.883937
0.881553
1.012683
1.147985
1.019835
1.159906
1.132488
1.176000
1.190901
1.368523
1.456738
1.327991
1.789927
1.714826
1.950860
2.010465
2.083778
2.087951
2.164841
2.147555
2.338886
2.609491
3.072619
13.687611
53.445697
188.186765
358.252525
698.486567
1003.437638
1015.805006
1015.805006
1015.805006
1015.805006
1015.805006
1015.805006
872.798562
539.022684
232.240558
108.762980
34.059882
##ZVALUE=400
0.525713
0.543594
0.642538
0.619888
0.519753
0.501871
0.666976
0.448823
0.526905
0.472665
0.623465
0.563860
0.604987
0.628829
0.569820
0.569820
0.551939
0.558496
0.638962
0.557899
0.576973
0.268817
0.601411
0.677705
0.571609
0.598431
0.697970
0.617504
0.670552
0.723600
0.636578
0.717640
0.697970
0.742674
0.718832
0.761747
0.795722
0.507832
0.807643
0.702739
0.765920
0.726581
0.755787
0.834465
0.730753
0.877976
0.809431
0.728965
0.785589
0.804663
0.948906
0.843406
0.787973
0.879765
0.847578
0.747442
0.913739
0.977516
0.960827
1.032948
0.984669
1.014471
1.071692
1.225471
1.148582
1.221895
1.375675
1.455545
1.626611
1.831651
1.736879
1.953840
2.023578
1.891851
1.822710
1.822710
1.933575
1.915693
2.418756
2.435446
2.781749
5.333424
30.647516
92.492700
267.852545
492.912531
922.496915
1015.861630
1015.861630
1015.861630
1015.861630
1015.861630
1015.861630
1006.975770
609.600544
366.152525
##END
