##TITLE=
##FORMAT=SPECTACLE-ASCII V-1.2
##DATA TYPE=ULTRAVIOLET SPECTRUM
##SECOND TYPE=ULTRAVIOLET SPECTRUM
##DATE=09/27/17
##TIME=11:35:42
##SPECTROMETER/DATA SYSTEM=SPECTACLE
##XUNITS=NM EM
##YUNITS=ENERGY
##YFACTOR=1
##FIRSTX=220
##LASTX=410
##NPOINTS=96
##3DDATA=Equidistant
##ZUNITS=NM EX
##FIRSTZ=210
##LASTZ=400
##ZPOINTS=39
##XYDATA=(Y..Y)
##ZVALUE=210
4.558563
4.778504
4.379749
4.543662
4.323721
4.924536
4.605651
5.084872
4.126430
4.590750
3.882647
4.171729
3.596544
3.138781
3.490448
4.008412
4.238486
3.718734
4.278421
4.156828
4.677773
5.110502
5.294681
4.572868
5.407929
6.026626
5.895495
6.480813
6.317496
6.414652
7.065535
7.175803
7.417798
7.231832
7.629991
8.563995
7.241964
7.969737
7.775426
8.445978
7.051826
8.436441
7.434487
8.606911
8.316636
7.483959
7.521510
7.910728
8.307695
7.831454
7.870793
7.496476
8.366704
8.668900
7.117987
7.708669
7.608533
7.852912
8.451939
8.996725
9.077787
9.146929
7.748604
8.450747
8.590817
8.049607
9.344816
9.002686
8.552670
10.571480
12.037754
12.714863
14.226437
15.456676
16.210675
16.071796
15.921593
17.855763
16.011000
14.911890
14.186502
12.003779
11.207461
9.857416
8.658767
9.455681
7.880926
6.439686
6.885529
7.135868
7.201433
7.235408
7.516742
7.753968
7.332563
8.286834
##ZVALUE=215
11.343956
12.080669
11.494756
10.165572
7.923841
7.267594
8.893609
7.742643
8.409619
7.277727
6.770492
7.584691
5.524755
5.419850
4.124641
3.777742
3.496408
4.160404
4.388690
4.244447
4.710555
4.649758
4.407763
5.114675
5.746484
6.094575
6.815791
6.202459
7.262826
8.559823
7.738471
9.128451
9.697676
9.193420
10.024905
9.337664
9.850860
9.685755
8.417964
9.271502
9.065866
9.054542
8.627772
9.669662
8.584857
8.450747
9.031892
8.552670
8.703470
8.888841
8.919835
9.322762
8.590817
9.525418
8.704662
7.886887
9.522438
7.874966
9.162426
8.855462
8.686781
9.619594
9.065866
9.040833
8.962750
9.110570
9.563565
9.072423
10.709763
10.802746
11.591911
12.272000
13.872981
15.683770
15.485883
16.919971
16.998649
16.004443
15.644431
14.644861
14.018416
11.607409
11.356473
10.246634
8.835793
8.189678
8.704662
6.799698
7.655621
6.864667
7.270575
7.019639
7.679462
6.650686
6.593466
7.129908
##ZVALUE=220
30.739903
30.448437
33.567548
33.780932
31.124949
25.381446
20.713806
17.846823
14.554858
14.242530
16.162992
15.929937
15.142560
13.397932
10.339618
9.650588
7.049441
5.887747
4.604459
4.582405
4.369617
4.765987
5.479455
5.850792
6.189942
7.005930
7.022619
8.368492
9.827614
9.296536
11.215806
10.084510
11.629462
11.360645
11.552572
11.874437
12.231469
12.225509
10.489821
11.267662
10.440946
10.273457
11.082888
10.959506
12.814999
11.097789
8.977652
11.701584
9.946823
11.101961
11.041760
11.724830
11.001825
11.390448
10.285974
10.980964
10.764599
11.733770
11.435747
11.417866
12.065768
12.252927
11.002421
10.179877
12.164712
10.944605
12.248755
12.000799
12.097955
13.350844
14.839768
16.656518
16.631484
17.273426
17.335415
18.467903
18.791556
17.335415
16.330481
17.769933
15.673637
13.465881
13.694763
12.813807
10.911822
9.937882
9.088516
8.441806
9.412766
9.301901
8.849502
8.356571
8.669496
8.691549
7.987618
9.104609
##ZVALUE=225
47.055483
50.421953
66.979527
80.721974
91.227889
87.526441
80.542564
63.304901
50.164461
40.639639
29.249787
28.548837
29.653907
29.962659
27.499795
27.217865
22.025704
17.012954
13.071895
9.980798
7.973909
7.046461
5.483627
5.560517
6.323457
6.716847
7.379651
8.811951
9.505749
9.476542
11.861920
11.610985
12.534857
12.111664
11.464953
12.851954
12.183785
11.814833
11.275411
12.414455
12.939572
11.451840
12.252927
12.225509
12.153983
13.610721
13.117790
13.602972
14.944673
13.920665
13.687611
14.650822
15.229583
14.044642
14.656782
15.013814
16.063452
17.086864
14.633536
15.871525
18.296838
15.849471
17.630458
17.917752
17.593503
18.873811
18.585920
19.428730
18.287897
18.961430
18.817782
21.806955
21.959543
21.865964
22.142529
23.781657
20.620823
21.909475
21.627545
20.425916
19.492507
18.014908
18.041730
15.588999
15.568733
13.179779
12.542605
14.003515
12.967587
11.085868
12.325644
11.528730
10.911822
12.796521
10.537505
10.751486
##ZVALUE=230
38.156509
38.075447
61.046481
101.367831
137.254000
173.987746
192.834735
193.995833
171.866417
148.319602
105.608702
77.026486
53.788424
48.934817
47.828555
54.400563
54.456592
51.766634
45.648813
37.296414
28.992891
17.973781
13.155937
9.509921
8.064508
6.697774
7.386804
6.973743
7.999539
8.631945
10.306835
9.427667
10.130405
10.593534
10.908842
11.442900
11.157990
12.191534
11.285543
12.751818
12.803674
12.874603
14.888644
15.749931
16.123652
17.294884
17.808676
19.722581
20.148754
21.152496
21.680593
22.462606
22.582412
23.224950
23.218989
25.296807
25.546551
25.636554
26.910901
26.014447
28.881431
26.874542
28.494000
27.903914
28.478503
29.119849
27.840734
30.123591
27.437806
30.962825
30.682683
30.838847
32.746792
33.941865
32.746792
34.527779
34.268498
33.318996
29.537678
29.735565
27.883649
25.790930
26.217699
22.918582
25.376678
24.137497
21.541715
21.202564
19.649863
18.555522
18.159747
17.739534
16.868711
17.323494
14.887452
16.137958
##ZVALUE=235
12.753606
15.353560
29.979944
68.067908
112.606883
184.170008
243.323445
318.657756
355.872512
355.504751
326.140523
268.013477
186.743736
138.997436
95.194578
79.096556
71.514845
78.631639
83.279610
82.054734
76.365471
66.236854
50.259829
34.416914
25.648475
15.322566
11.690855
9.181499
8.473992
8.339882
8.460879
9.245872
8.737445
9.331703
8.712411
10.564923
11.024475
12.041926
11.834502
13.940930
15.854836
17.500520
19.824505
20.324588
24.264455
26.349425
28.167963
28.659701
31.218529
33.099651
34.188628
33.992529
37.936568
38.288832
38.369894
38.914680
39.250851
37.327409
40.763617
40.896535
43.488741
42.846799
41.918755
45.450926
46.249628
47.864914
47.532916
48.513412
48.223734
46.951771
48.603415
50.118566
49.423575
48.321486
48.255920
48.640966
47.890544
46.992898
44.899583
41.414499
42.714477
41.003823
37.284493
35.969615
34.380555
30.105710
30.739903
30.420423
30.012727
27.736425
27.294755
23.369789
24.044514
23.292899
23.048520
23.598671
##ZVALUE=240
3.546476
3.757477
6.463528
14.374852
42.739511
78.285933
157.529712
248.498917
376.634002
467.617512
537.637472
546.075702
510.563850
419.416428
325.966477
212.187767
153.476596
109.421611
95.413923
98.577738
111.199617
115.528703
112.340450
101.436973
82.497001
66.913962
46.156645
34.934878
21.379590
16.557574
12.059808
11.089444
11.209846
10.888577
11.791587
12.459755
12.865663
14.047623
14.882684
18.379688
20.996928
23.450851
26.635528
29.882789
34.348965
37.657619
41.673779
45.495629
49.004555
48.981905
52.778721
54.133534
52.938461
57.593584
59.349537
56.701899
59.757829
58.761835
58.255792
58.789849
58.860779
61.832666
62.424541
62.938929
60.721636
64.445734
63.501000
63.293576
65.127611
62.971711
64.005852
64.811707
62.920451
61.775446
64.355731
63.344836
61.170459
58.377981
57.147741
53.905845
52.329898
49.172640
47.409534
46.227574
43.258667
41.350722
39.743781
37.947893
37.053823
34.857988
32.675862
33.358932
29.327869
28.508902
28.223991
27.523637
##ZVALUE=245
2.866983
2.546906
2.816916
2.787709
5.962849
11.053681
32.987595
69.909692
162.818432
251.968503
406.112671
519.603491
622.517467
667.999983
641.362667
549.301505
448.687673
310.784578
215.426683
135.644674
104.161501
98.783970
111.963749
123.951435
129.965544
128.373504
112.516880
94.712973
72.722435
57.033896
41.364431
27.386546
18.575788
13.359785
13.572574
14.044642
13.072491
15.529990
17.181635
19.993782
22.756457
28.399825
31.109452
37.703514
41.302443
44.441819
48.476458
51.324964
53.992867
61.187744
62.721968
67.873001
67.813993
70.445538
69.287419
69.877505
69.099665
70.170760
68.015456
67.334771
66.001415
66.835880
66.071749
65.402985
66.233873
64.767599
63.115954
62.387586
60.877800
60.638785
60.774684
60.318708
60.147643
58.445930
57.536960
52.949786
53.489804
51.049590
53.189993
48.732758
45.338869
45.173764
43.284893
40.660501
40.424466
37.361979
35.271645
34.822822
33.469796
32.925606
30.209422
29.410720
28.060675
27.213693
25.815964
25.640726
##ZVALUE=250
2.448559
2.615452
2.988577
2.709627
2.661943
3.062487
3.664494
7.173419
26.457906
57.605505
142.024755
240.913630
367.057920
536.426902
653.347969
751.986504
758.766532
684.548616
590.909719
415.203571
282.276869
190.491676
117.890835
99.219680
105.928779
120.517612
138.307810
139.579773
134.317875
122.862458
106.943846
78.446865
60.750842
38.703680
29.357672
20.036697
18.042922
17.275810
19.186735
23.419857
26.310682
30.908585
33.618808
39.425492
44.992566
50.195456
55.184960
58.002472
59.152842
65.257549
67.581534
68.600774
68.548918
71.840882
70.904493
70.974827
74.371696
67.877769
69.124699
67.184567
65.312982
64.460635
62.115788
60.227513
57.878494
56.252480
56.274533
57.380795
53.953528
52.305460
49.543977
49.447417
46.671629
46.839714
46.795607
43.214560
44.075847
41.066408
40.008426
38.539767
36.649704
34.936666
33.512712
32.502413
30.293465
30.776858
29.260516
27.801991
25.414824
25.741458
26.453733
24.322867
22.898912
22.781491
23.138523
22.221804
##ZVALUE=255
2.156496
2.068877
2.339482
2.319813
2.502799
2.477765
2.483726
2.621412
3.105998
4.098415
18.060803
43.722987
91.416836
202.152729
323.110819
529.726744
667.822957
809.109807
856.974721
830.726624
726.104975
585.141778
371.096730
239.948630
135.444999
98.499656
93.160868
105.602741
127.161741
141.090751
145.801902
144.331455
131.104589
107.467771
87.434649
59.700608
45.804977
31.268597
26.371479
24.351478
25.786757
30.142665
34.767985
38.627982
42.727590
47.165751
50.678849
56.013465
56.239963
61.296821
62.827468
65.455437
65.714717
65.923929
65.224767
62.995553
63.345432
61.662793
59.371591
58.807731
60.260892
56.249499
52.885413
53.482652
51.132441
49.761534
48.323870
45.961738
43.557882
41.124821
42.411685
41.184425
39.344430
38.629770
37.904978
36.183000
36.867857
34.606457
33.829808
30.244589
29.764771
28.833747
27.453899
25.886893
24.975538
24.953485
24.505854
23.888946
22.473931
21.092892
20.809770
20.386577
18.987656
19.904971
19.608736
18.058419
##ZVALUE=260
2.024770
1.826882
2.202988
2.029538
2.032518
2.144575
2.138615
2.272725
2.704859
2.570748
2.392530
3.501773
8.067489
31.364560
67.350864
158.375502
273.813009
471.063852
632.877946
843.158960
944.727659
966.356993
866.555572
719.620585
482.102633
330.576897
191.063881
121.736526
86.545944
86.553693
107.628703
129.344463
147.230625
154.005885
152.564645
135.155916
116.328001
88.368654
70.466995
51.523447
41.457415
33.939481
33.979416
35.605431
39.370656
42.004585
43.982863
47.165751
49.194694
50.852895
51.590800
53.070784
54.370761
52.987933
54.306984
53.936839
52.923560
49.444437
51.050782
48.071742
48.395991
45.635700
42.794943
43.169856
41.546822
41.516423
39.881468
38.423538
36.251545
35.553575
35.265684
33.883452
33.787489
33.053756
32.655597
31.489730
30.482411
28.249621
27.886629
26.107430
25.634766
24.274588
24.786592
22.603869
22.773743
21.624565
20.987988
20.694733
20.101666
19.320846
19.163489
18.169880
18.300414
16.840696
17.082691
16.884804
##ZVALUE=265
1.857877
1.791716
1.839995
1.984835
1.830459
1.850724
2.007484
1.840591
2.047420
2.106428
2.292991
2.208948
2.401471
2.644658
4.454851
18.346906
46.416521
117.574930
215.719938
419.978499
609.868765
803.345442
994.014740
1015.805006
975.916982
848.816037
636.016726
458.280444
260.165930
160.019994
100.287795
76.671839
85.951686
114.223957
136.123896
154.458880
160.564780
157.909989
140.550733
118.827820
98.354816
74.513555
58.066845
46.189427
40.905476
36.995411
38.944483
38.390756
41.560531
42.845607
45.710802
44.592619
44.884682
43.694973
44.794679
42.506456
42.234659
41.710734
40.339828
38.017631
38.235784
35.934448
35.836697
34.372807
34.830570
33.049583
34.183860
32.213926
31.258464
30.289888
30.117631
30.321479
30.472875
28.298497
28.897524
26.878715
27.000904
25.514960
24.587512
23.163557
23.549795
21.589994
20.899773
22.107959
20.895600
20.090938
20.045638
18.670559
18.193722
17.706752
17.263889
16.949773
15.994906
16.430616
15.959740
14.900565
##ZVALUE=270
1.782775
1.670718
1.747608
1.748800
1.762509
1.785755
1.838803
1.970530
1.860857
1.828671
1.871586
2.340674
2.256632
2.206564
2.550483
2.552867
3.332496
8.409619
22.609830
78.238845
159.049630
346.134901
537.572503
802.852511
983.926654
1015.805006
1015.805006
975.685716
813.824534
565.902591
387.551785
200.086832
121.071935
71.279407
65.325499
88.354945
111.601949
142.936707
156.410933
167.104006
160.610676
145.433545
128.275752
100.765824
81.721544
59.365630
49.225688
41.080713
38.137436
37.337542
36.286712
37.741661
38.230419
37.603974
36.732554
35.480857
35.419464
33.725500
34.042597
33.018589
32.635927
31.657815
31.053424
30.633807
29.711723
29.425621
29.116869
28.151870
28.614998
27.903914
27.854443
27.949810
27.346611
27.140975
26.330948
25.330782
25.101900
24.481416
24.322867
22.256970
21.552444
20.762682
20.733476
19.788742
18.865466
18.782616
18.066764
17.380714
17.108917
16.592741
15.566945
16.033649
15.466809
14.988780
14.974475
15.185475
##ZVALUE=275
1.665950
1.458526
1.528859
1.481771
1.418591
1.592636
1.655817
1.757741
1.750588
1.699924
1.919866
1.814961
1.903772
1.897812
2.070665
1.977682
2.292991
2.362728
2.444983
5.068779
15.688539
44.730902
134.512782
253.923535
491.972566
688.868761
926.980972
1015.818715
1015.818715
1015.818715
991.261005
742.750764
532.508492
285.505652
166.592002
77.544451
56.084991
65.917969
84.407926
116.368532
137.931705
158.360004
163.560510
161.172748
147.999525
123.626590
104.352832
79.883933
64.079762
48.838854
40.930510
34.877658
32.485723
32.546520
31.899810
31.685829
31.791925
32.095909
30.238628
29.741526
30.130744
30.161738
29.211640
29.317737
28.869510
28.249621
28.555989
27.866960
27.757883
27.254820
27.074814
26.969910
26.499629
26.192665
25.347471
24.743676
24.148822
23.511648
22.669435
22.519827
21.954775
21.085739
21.060705
19.369721
18.943548
18.464923
17.973781
17.306805
16.369820
16.636848
15.408993
15.635490
15.306473
14.563799
14.213920
13.690591
##ZVALUE=280
1.483560
1.487732
1.622438
1.434684
1.489520
1.446605
1.424551
1.505613
1.467466
1.489520
1.869798
1.746416
1.579523
1.631975
1.753569
1.869798
1.933575
1.905560
2.125502
2.192855
2.496839
3.507733
8.950830
38.947463
93.661547
221.884847
367.043018
618.058443
818.240643
1015.805006
1015.805006
1015.805006
1015.805006
822.014809
614.480972
365.017653
216.510892
97.794533
58.341622
49.117804
61.230659
91.309547
111.921430
142.194629
152.809620
164.355636
160.185695
144.396424
124.991536
97.885728
79.072714
57.599545
45.783520
35.259724
30.882955
29.475689
28.072596
27.127862
27.359724
27.027726
26.906729
27.038455
26.656985
26.805997
27.022958
27.069449
26.033521
25.783777
25.947690
25.859475
25.697947
24.761558
24.939775
25.074482
24.769902
24.331808
23.641586
23.046732
21.927953
21.553636
21.106601
19.982457
19.285679
18.904805
18.201470
17.973781
17.055869
16.663671
16.794801
15.753508
15.381575
14.479756
14.735460
13.680458
13.994575
13.818741
##ZVALUE=285
1.443624
1.321435
1.330972
1.247525
1.410842
1.446605
1.412630
1.430511
1.561642
1.414418
1.567602
1.538992
1.503825
1.686811
1.774430
1.558661
1.863837
1.698732
1.811981
1.914501
2.036691
2.171993
2.323985
2.472997
5.862713
16.829967
57.075620
122.650862
269.128680
440.516472
647.300482
927.495956
1015.812755
1015.812755
1015.812755
961.785913
763.484836
479.364991
302.719474
145.825744
78.287721
41.705966
43.381453
60.180426
80.647469
113.150477
132.443905
151.601434
156.773925
153.992772
140.907764
119.570494
100.441575
73.986650
56.549907
40.053725
32.916665
27.547479
24.459958
23.551583
23.816824
23.464561
24.257898
23.812652
24.236441
23.327470
24.405718
24.210811
23.787618
24.386644
23.403764
23.584962
23.436546
23.019910
22.838712
22.698641
21.814704
21.580458
20.309687
20.099878
19.577742
19.054413
17.981529
18.109679
16.774535
17.100573
16.603470
15.459657
15.228987
14.813542
14.828444
13.765693
13.654828
13.270974
13.242960
12.662411
##ZVALUE=290
1.208782
1.412630
1.379848
1.174808
1.220703
1.318455
1.418591
1.165867
1.385808
1.417994
1.367927
1.527667
1.533628
1.439452
1.501441
1.572967
1.404881
1.524687
1.656413
1.642704
1.583695
1.825690
1.875758
1.995564
2.104640
2.187490
2.979636
7.407665
30.876994
74.968934
152.806640
333.340764
536.997914
842.489004
1012.432575
1015.805006
1015.805006
1015.805006
884.328485
608.156919
405.572653
206.714869
111.490488
48.269629
31.653643
40.610433
55.783987
78.090429
99.105835
127.143860
142.779946
151.425600
149.417520
135.843754
117.627978
91.258883
71.501732
49.549937
38.679838
28.289557
23.830533
21.187663
21.018982
21.374822
20.409822
19.816756
20.709634
20.895600
20.930767
20.737648
21.277666
20.490885
20.670891
20.977855
19.534826
19.484758
19.675493
18.695593
18.123984
18.360615
17.640591
16.858578
16.763806
16.012788
15.802979
15.304685
15.306473
14.912486
14.626980
14.149547
12.696981
12.881756
12.647510
12.637973
12.326837
12.729764
##ZVALUE=295
1.281500
1.182556
1.137853
1.176000
1.083612
1.205802
1.191497
1.124740
1.371503
1.261830
1.432896
1.276731
1.179576
1.492500
1.382828
1.376867
1.378655
1.451969
1.650453
1.664758
1.705885
1.607537
1.758933
1.630783
1.977682
2.129674
2.272725
2.269745
2.583861
3.363490
10.897517
47.077537
110.507607
266.107917
443.032980
731.047988
943.459868
1015.805006
1015.805006
1015.805006
995.841622
654.097795
493.854880
288.075805
82.568526
59.666634
23.841858
25.123954
41.691661
49.165487
70.967674
92.470646
118.213892
133.398771
141.205788
139.978528
125.992894
108.988881
74.703693
67.268610
39.147735
34.834743
22.564530
19.523501
17.751455
17.827749
17.140508
17.041564
16.960502
17.319918
16.963482
17.230511
16.714931
16.523600
16.551614
16.497970
16.017556
15.806556
15.412569
15.538931
14.978647
14.841557
13.927817
13.840795
13.521910
13.532639
12.782812
13.372898
12.724996
12.168884
12.228489
12.122989
11.802912
11.448860
11.603832
11.444688
##ZVALUE=300
1.119971
1.140833
1.326799
1.303554
1.283884
1.096725
1.292825
1.253486
0.981688
1.252890
1.141429
1.254678
1.294613
1.368523
1.090765
1.242757
1.167655
1.266599
1.359582
1.418591
1.512766
1.444817
1.599789
1.603961
1.495481
1.627803
1.722574
1.876950
2.141595
2.185702
2.041459
2.561808
7.466674
24.892688
84.766746
168.763399
360.118747
566.855669
857.345462
1015.805602
1015.805602
1015.805602
1015.805602
890.464783
601.543784
394.948721
200.117826
109.542608
42.328835
22.122860
22.073984
29.827952
45.864582
61.785579
87.390542
106.354952
127.040744
134.769678
132.177472
123.821497
105.289817
87.274909
64.288974
48.611760
32.754540
24.326444
18.229485
15.840530
14.866590
14.605522
14.408827
14.668703
13.873577
14.284849
14.453530
14.373660
14.108419
13.959408
13.065934
13.383627
12.971759
12.535453
12.838840
12.711883
12.354851
12.493730
12.267828
12.180805
11.187792
11.638999
11.295676
11.243820
11.494756
10.981560
10.936856
10.578632
##ZVALUE=305
1.143813
1.150966
1.242757
1.177788
0.938773
1.060963
1.202822
1.080632
1.143813
1.262426
1.178980
1.086593
1.076460
1.194477
1.233816
1.287460
1.220703
1.262426
1.358986
1.370907
1.172423
1.394749
1.277924
1.387596
1.343489
1.453757
1.618862
1.531839
1.772642
1.815557
1.905560
2.100468
2.076626
2.184510
3.540516
16.914606
47.213435
134.706497
250.813961
480.643511
695.002675
975.634456
1015.805006
1015.805006
1015.805006
940.941572
741.542578
474.611521
298.293829
136.906505
69.175959
25.972724
16.940832
19.935966
27.597547
44.376850
60.290694
83.809495
101.736784
120.238662
127.237439
126.646757
116.844773
98.527670
82.113743
58.500767
45.124888
30.596852
23.247600
17.142892
15.090704
13.676882
13.896823
13.146996
13.078451
13.283491
13.136864
12.996793
12.467504
12.467504
12.604594
12.560487
12.096763
12.431741
12.236834
11.924505
11.742711
11.587739
11.745691
11.461973
11.758804
10.829568
10.915995
10.672808
10.793805
10.535717
##ZVALUE=310
0.960827
1.097918
0.915527
0.953674
1.022816
1.050830
0.969768
1.054406
1.048446
0.993609
1.045465
1.171827
1.113415
1.133680
1.280904
1.083612
1.358986
1.154542
1.255870
1.384616
1.157522
1.209974
1.052618
1.279712
1.399517
1.452565
1.420975
1.470447
1.573563
1.634955
1.671910
1.639724
1.816750
1.867414
2.012849
2.183914
2.394915
7.500648
24.504662
82.173944
164.037943
353.321433
550.920963
839.298964
1015.805602
1015.805602
1015.805602
1015.805602
897.334814
611.924529
409.534574
208.689570
111.247897
42.156577
19.890666
14.767647
18.382668
26.458502
37.465692
55.697560
72.633624
95.811486
109.273791
118.719935
119.492412
109.866858
98.559856
77.870488
61.932802
41.642785
31.633973
22.376776
17.806888
14.376640
13.253689
12.870431
12.346506
12.521744
12.557507
12.512803
12.144446
12.205839
12.366772
12.379885
12.328625
12.031794
11.984706
11.832714
11.904836
11.228919
11.603832
11.316538
10.971427
11.321902
10.636449
11.073947
##ZVALUE=315
1.049638
1.090765
1.024604
1.047850
1.044869
1.100898
0.955462
0.886917
1.265407
1.005530
0.964999
0.994802
0.984669
1.064539
1.060963
1.044869
1.018643
1.192689
1.111627
1.115799
1.182556
1.311898
1.255870
1.332760
1.247525
1.164675
1.295805
1.385808
1.437664
1.230836
1.419783
1.481771
1.588464
1.628995
1.627803
1.820922
1.825690
2.144575
2.443790
4.124641
12.776852
52.222610
114.753842
266.979933
446.407795
748.104453
953.274965
1015.805006
1015.805006
1015.805006
993.577838
730.367899
522.048473
278.780460
153.434873
58.915615
25.954843
13.983846
13.433695
17.784834
23.705959
37.207603
49.607754
69.718957
85.721612
103.185773
113.257766
112.805963
106.325746
90.003610
75.280666
56.808591
42.924881
28.778911
21.535754
16.066432
13.805628
12.893677
12.478828
12.171865
11.678934
12.069941
11.802912
12.061000
11.968613
11.746883
12.003779
11.861920
11.746883
11.771917
11.621714
11.917949
11.211634
11.204481
10.798573
11.131763
##ZVALUE=320
0.935793
1.005530
1.125932
1.051426
1.078844
1.063943
1.049638
1.075864
0.972748
0.997782
0.855923
1.083612
1.148582
1.113415
1.090765
0.936985
1.044869
1.223683
0.979900
1.140833
1.032948
1.116991
1.284480
1.211762
1.194477
1.045465
1.255870
1.223683
1.070499
1.318455
1.203418
1.265407
1.336932
1.695752
1.460910
1.655817
1.812577
1.915693
1.838803
2.018809
2.170801
2.483726
6.104708
29.485822
75.589418
199.894905
334.886909
582.267642
797.462463
1015.805006
1015.805006
1015.805006
1015.805006
855.229497
632.239580
354.610682
205.600858
88.193417
40.552616
15.185475
11.025667
12.475848
14.814734
21.941662
29.714704
45.421720
60.344934
80.957413
94.150901
104.307532
107.173920
100.486875
90.102553
70.463419
55.413842
38.742423
29.013753
20.320415
15.934706
13.165474
12.563467
11.693835
12.006760
12.034774
11.461973
11.762977
11.615753
12.037754
11.664629
11.923909
11.930466
11.794567
11.332631
11.181831
10.938644
11.264682
##ZVALUE=325
0.884533
0.802875
0.850558
0.798702
1.156926
0.931621
0.883937
0.933409
1.022816
1.129508
0.946522
1.140833
1.114607
0.953674
1.087785
1.142621
1.015663
0.989437
0.932813
0.907779
1.120567
1.008511
1.151562
1.168847
1.147985
1.159906
1.165867
1.116991
1.254678
1.134872
1.226664
1.152754
1.266599
1.276731
1.488924
1.569986
1.517534
1.553893
1.619458
1.685619
1.887679
1.848936
2.039671
2.261996
3.647804
19.202828
49.450994
133.818984
244.350433
473.047495
681.041479
954.103470
1015.805006
1015.805006
1015.805006
910.920501
699.179769
429.481864
261.086822
118.827820
57.802796
20.186901
11.451840
9.774566
11.179447
14.610887
19.326806
30.560493
42.309761
60.656667
74.776411
90.686679
98.228455
100.251436
93.911886
80.123544
66.009760
50.125718
38.138628
26.100874
19.841790
14.815927
13.198853
11.780858
11.656880
11.302829
11.634827
11.290908
11.123419
11.559725
11.463761
11.023879
11.104941
10.960698
11.334419
11.388659
##ZVALUE=330
0.844598
0.745654
0.869632
0.933409
0.813603
0.935793
1.044869
0.926852
0.848770
0.879765
0.926852
0.749826
0.811815
0.929832
0.742674
0.896454
0.903606
1.003742
1.021624
1.100898
1.012683
0.951886
0.960827
1.015663
1.099706
1.141429
1.057982
1.217723
1.111627
1.149774
1.091957
1.166463
1.087785
1.168847
1.258850
1.275539
1.337528
1.322627
1.408458
1.312494
1.462698
1.473427
1.658797
1.782775
1.833439
2.055764
2.245903
8.330941
26.062727
87.272525
170.836449
355.876684
539.956689
818.379521
997.515917
1015.805006
1015.805006
989.854932
797.835588
524.634719
341.055989
162.494779
84.293485
31.108856
13.851523
9.728670
9.639859
10.668635
13.417602
20.303726
27.427673
41.378736
54.211617
73.050857
84.399581
93.465447
93.897581
87.646842
79.490542
61.841607
49.252510
34.767985
25.889874
18.633604
15.541911
13.089776
11.773705
11.630654
11.442900
11.532903
11.135936
11.251569
10.757446
11.144876
11.048913
10.802746
##ZVALUE=335
0.833869
0.963807
0.785589
0.828505
0.820756
0.823736
0.873804
0.825524
0.877976
0.982881
0.917912
0.920892
0.991821
0.883937
0.898838
1.147985
0.936985
0.854731
0.959635
0.767708
0.928640
1.065731
1.049638
0.911951
0.919700
1.045465
1.057982
1.075864
1.138449
1.037717
1.121759
1.040697
1.146793
1.211762
1.181960
1.180768
1.165867
1.171827
1.228452
1.306534
1.435876
1.408458
1.509786
1.450777
1.473427
1.673698
1.663566
1.804829
2.124906
4.369617
13.552904
53.319931
113.595724
260.907412
428.910851
705.044866
896.569490
1015.805006
1015.805006
1012.469530
874.723792
608.391762
416.772962
221.443772
117.325783
42.392612
18.874407
9.636879
9.275675
9.161830
10.260940
13.243556
17.444491
27.412772
38.026571
53.639412
66.824555
80.071688
86.150765
87.569952
82.656741
70.314407
59.524775
46.578646
36.003590
25.618672
19.802451
15.079975
12.756586
11.726618
11.089444
10.789633
10.677576
10.680556
10.776520
10.882616
##ZVALUE=340
0.785589
0.779629
0.823736
0.774860
0.778437
0.824928
0.862479
0.766516
0.642538
0.962615
0.813603
0.820756
0.949502
1.067519
0.936985
0.898838
0.796914
0.732541
0.776649
0.894666
0.926852
0.833869
0.771880
0.895858
0.968575
0.800490
0.960827
1.025796
1.046658
0.990629
1.071692
0.970960
0.958443
1.092553
1.172423
1.178980
1.157522
1.146793
1.174808
1.160502
1.198649
1.291633
1.219511
1.419783
1.437664
1.366735
1.439452
1.669526
1.727939
1.648664
1.825690
2.563000
8.786917
26.830435
87.826848
176.160932
372.155905
550.410748
806.025863
967.733860
1015.784740
1015.784740
911.996961
732.531548
462.469459
290.881991
137.370825
67.092776
21.545887
10.747910
8.919835
8.745790
8.780956
9.602904
12.301803
16.496778
25.848746
34.985542
50.336719
61.797500
74.789524
80.628991
82.162619
77.670813
68.128705
57.857633
44.519901
34.582615
24.475455
19.038916
14.407635
12.137890
10.664463
10.536909
10.222793
10.073781
##ZVALUE=345
0.778437
0.670552
0.739694
0.825524
0.676513
0.866652
0.737906
0.891685
0.960827
0.777841
0.765920
0.848770
0.872612
0.811815
0.817776
0.788569
0.749826
0.855923
0.839829
0.902414
0.853539
1.072884
0.812411
0.843406
0.986457
0.916719
0.990629
0.916719
0.783801
0.968575
0.951886
0.946522
1.080632
1.080632
0.927448
0.872612
0.997782
1.167655
1.025796
1.067519
1.135468
1.124740
1.153946
1.125932
1.118779
1.225471
1.345873
1.357794
1.496673
1.521707
1.624823
1.648664
1.751781
1.979470
3.526807
17.840862
49.393773
135.263801
245.408416
458.614826
644.679666
884.108543
1005.491018
1015.805006
976.731777
775.867701
579.567552
334.885716
192.137957
82.229972
36.671758
13.461709
9.152889
8.283854
8.011460
7.831454
8.789897
11.368990
14.891624
23.015738
31.998754
46.063662
56.520700
68.038702
74.433684
76.039433
72.920918
64.741969
55.760741
44.073462
34.350753
24.436712
18.860698
14.296770
12.226701
10.197759
##ZVALUE=350
0.742674
0.765920
0.816584
0.676513
0.764728
0.636578
0.839829
0.607967
0.780821
0.671744
0.834465
0.699759
0.929832
0.806451
0.724792
0.839829
0.775456
0.898838
0.962615
0.864863
0.868440
0.941753
0.811815
0.984669
0.826716
0.859499
0.912547
0.962615
0.875592
0.896454
0.937581
0.977516
0.857711
0.871420
0.957847
0.972748
0.997782
0.895858
0.929832
1.006722
1.119971
0.964999
0.966787
1.165867
1.277924
1.105666
1.227856
1.342893
1.360774
1.288652
1.565814
1.385808
1.618862
1.593828
1.574755
1.833439
2.362728
8.987784
28.058887
88.712573
171.070695
351.517797
524.267554
760.751963
916.295648
1015.805006
996.126533
842.643976
657.603741
398.058891
244.610906
113.115907
53.281784
16.556978
8.849502
7.240772
7.038713
7.054806
7.214546
8.418560
10.389686
15.193820
20.289421
29.660463
38.131475
50.938725
59.072971
67.727566
69.086552
67.099929
62.009692
51.451921
42.331815
31.555891
24.541616
17.863512
##ZVALUE=355
0.731945
0.917912
0.758767
0.796914
0.855923
0.856519
0.880957
0.861883
0.725985
0.611544
0.715852
0.771880
0.783801
0.747442
1.039505
0.826716
0.853539
0.798702
0.823736
0.855923
0.729561
0.850558
0.872612
0.945926
0.927448
0.941753
0.803471
0.844598
0.789762
0.848770
0.799894
0.874996
0.885725
1.000762
1.021624
0.855923
1.103878
0.925660
1.038909
1.088977
0.962615
1.059771
1.110435
1.081824
1.010895
1.060963
1.046658
1.362562
1.290441
1.264811
1.343489
1.507998
1.375675
1.284480
1.414418
1.484752
1.530647
1.755953
1.986623
4.788637
15.230775
58.854818
121.864676
260.233879
415.315628
664.822459
853.703022
1010.658741
1015.810966
924.492478
748.702884
492.466688
311.304927
137.876868
67.029595
21.432638
10.064840
7.106662
6.677508
6.617904
6.860495
7.145405
7.578731
9.629726
12.388825
18.441677
24.763942
35.685897
43.361783
53.128600
59.797764
62.887669
61.468482
56.364536
49.688816
40.006638
##ZVALUE=360
0.675917
0.777841
0.703931
0.793934
0.813603
0.802875
0.690818
0.739694
0.863671
0.837445
0.806451
0.668764
0.972748
0.707507
0.801682
0.835657
0.816584
0.983477
0.736713
0.767708
0.684857
0.709891
0.692606
0.802875
0.892878
0.709891
0.869632
0.703931
0.942945
0.977516
0.943542
0.866652
0.925660
1.008511
0.873804
0.890493
0.868440
1.065731
0.992417
1.166463
0.981688
1.015663
1.107454
1.008511
1.035929
0.989437
1.057982
1.097918
1.174808
1.247525
1.169443
1.247525
1.463890
1.340508
1.346469
1.207590
1.491904
1.385808
1.567602
1.708865
1.931787
2.583861
6.886721
29.268861
72.983503
184.506774
310.893655
523.876548
710.410476
903.289914
969.240665
914.098620
779.981017
538.660884
366.844535
192.339420
99.636912
34.830570
14.967918
7.304549
6.483793
6.456971
6.332994
6.320477
6.391406
7.025599
7.908940
10.816455
14.226437
20.705462
28.056502
38.539767
45.626760
53.091645
56.153536
56.512952
##ZVALUE=365
0.691414
0.750422
0.681877
0.817776
0.790954
0.759959
0.644922
0.831485
0.756979
0.857711
0.805855
0.653863
0.549555
0.789762
0.802875
0.902414
0.725985
0.739694
0.814795
0.724792
0.741482
0.748634
0.815988
0.751615
0.801682
0.850558
0.765920
0.802875
0.760555
0.846982
1.062751
0.992417
1.080632
0.974536
0.851750
0.741482
0.786781
0.664592
0.922680
0.821948
1.017451
0.962615
0.943542
1.097918
1.176000
0.927448
0.917912
0.986457
1.095533
1.166463
0.932813
1.287460
1.211762
1.226664
1.054406
1.303554
1.301765
1.334548
1.342893
1.480579
1.500845
1.716614
1.703501
2.070665
3.256798
15.068650
43.373704
123.938918
228.645802
423.312783
598.719716
805.432796
912.039876
923.627019
828.635693
620.542765
446.378589
248.680711
137.614608
52.290559
21.726489
8.021593
6.726980
6.299615
6.218553
6.038547
5.992651
5.580783
5.933642
7.014871
8.775592
12.495518
16.795993
24.593472
31.051636
39.988756
##ZVALUE=370
0.777841
0.866652
0.699759
0.619888
0.676513
0.529885
0.824928
0.645518
0.818968
0.781417
0.768900
0.868440
0.759959
0.730753
0.738502
0.767708
0.873804
0.828505
0.852942
0.787973
0.840425
0.813603
0.837445
0.804663
0.865459
0.643730
0.722408
0.773668
0.806451
0.855923
0.830889
0.955462
1.071692
0.893474
0.948906
0.832677
1.013875
0.979900
0.892878
0.926852
0.884533
0.935793
0.864863
1.040697
0.931621
1.060963
0.918508
1.048446
1.134872
1.020432
1.055598
1.069903
1.113415
1.117587
1.156926
1.147985
1.187921
1.304746
1.336932
1.449585
1.423955
1.449585
1.559854
1.694560
1.579523
1.867414
2.298951
9.097457
27.750731
86.842775
168.947577
335.399508
499.057770
729.168653
855.348706
912.333727
854.121447
688.568950
519.153476
298.020840
171.418786
68.410635
30.926466
10.708570
6.628633
5.964637
5.613565
5.568862
5.508661
5.212426
5.180836
5.606413
6.246567
7.799864
10.383725
15.258789
##ZVALUE=375
0.750422
0.762939
0.783801
0.705719
0.708699
0.676513
0.794530
0.635982
0.715852
0.719428
0.664592
0.692606
0.671744
0.847578
0.713468
0.825524
0.791550
0.677705
0.693798
0.590682
0.680685
0.803471
0.662804
0.756979
0.786781
0.736713
0.741482
0.832677
0.861883
0.842810
0.890493
0.830889
0.801682
0.895858
0.865459
0.905991
0.914931
0.798702
0.844598
0.962615
0.859499
0.926852
0.843406
1.009703
0.985861
0.904799
0.962615
0.991821
1.017451
0.947714
1.052618
1.039505
0.890493
0.978708
0.899434
1.055598
1.160502
1.139641
1.225471
1.083612
1.117587
1.114607
1.138449
1.294613
1.225471
1.521707
1.560450
1.684427
1.879930
4.577637
14.324784
52.324533
113.135576
258.554816
411.780477
641.505718
785.491467
896.164775
892.626643
753.535032
592.395663
366.371870
234.528780
115.879774
58.673620
18.989444
8.184910
5.473495
4.945993
5.057454
5.013943
5.089641
4.902482
4.744530
4.999638
5.746484
##ZVALUE=380
0.820756
0.784993
0.750422
0.649691
0.791550
0.705719
0.860691
0.898838
0.767708
0.696778
0.645518
0.726581
0.705719
0.638962
0.741482
0.609756
0.781417
0.670552
0.688434
0.822544
0.657439
0.609756
0.743866
0.727773
0.773668
0.796914
0.718832
0.756979
0.790954
0.753999
0.816584
0.767708
0.861883
0.896454
0.849962
0.893474
0.912547
0.830889
0.932813
0.763535
0.794530
0.915527
0.887513
0.924468
0.867844
0.767708
0.727773
0.916719
0.904799
0.931621
1.016855
0.883937
0.901818
1.019835
1.043677
0.987649
1.035929
1.001954
1.062751
1.027584
1.159906
1.143813
1.099706
1.193881
1.169443
1.345873
1.358986
1.500845
1.496673
1.664758
1.946688
2.788901
7.968545
36.479831
85.622668
204.832554
338.672400
550.728440
715.312958
873.872638
898.548961
797.351003
667.160749
471.720695
318.491459
158.338547
81.725717
28.674603
12.193918
5.751848
4.801750
4.655719
4.732609
4.591942
4.369617
4.442930
##ZVALUE=385
0.714660
0.688434
0.613928
0.694990
0.738502
0.738502
0.872612
0.688434
0.752807
0.812411
0.790954
0.809431
0.697970
0.708699
0.646710
0.668764
0.780821
0.786781
0.591874
0.723600
0.671744
0.745654
0.664592
0.727773
0.812411
0.778437
0.717640
0.828505
0.788569
0.740886
0.776649
0.746846
0.779629
0.761747
0.714660
0.887513
0.871420
0.881553
0.929832
0.926852
0.959635
0.841618
0.777841
0.907779
0.826716
0.780821
0.785589
0.853539
0.888705
0.765920
0.895858
0.893474
0.864863
1.043677
0.932813
0.851750
1.043677
1.027584
0.937581
1.013875
1.021624
1.018643
0.999570
1.169443
1.066923
1.109838
1.090765
1.136661
1.320839
1.214743
1.512766
1.578927
1.783967
2.030730
3.992915
20.512938
53.676963
138.667822
251.161456
461.213589
633.080602
813.825727
878.986716
851.621032
759.688020
565.353632
403.865576
220.618844
124.403834
50.888658
21.133423
6.795526
4.841685
4.475713
4.325509
4.097819
##ZVALUE=390
0.452995
0.385642
0.322461
0.422597
0.529885
0.512600
0.544786
0.408888
0.453591
0.362992
0.506639
0.447631
0.572801
0.561476
0.347495
0.527501
0.454783
0.475645
0.473857
0.547767
0.490546
0.453591
0.423789
0.330806
0.527501
0.482798
0.476837
0.374913
0.566840
0.614524
0.702739
0.425577
0.657439
0.741482
0.626445
0.574589
0.513792
0.552535
0.520945
0.562668
0.493526
0.654459
0.610948
0.612736
0.651479
0.660419
0.636578
0.684857
0.615716
0.650883
0.695586
0.561476
0.771880
0.743866
0.483990
0.652671
0.581741
0.594854
0.865459
0.665784
0.757575
0.773668
0.753999
0.817776
0.920892
0.955462
1.007915
0.845790
1.188517
1.062751
1.079440
1.294613
1.332760
1.307726
1.309514
1.509786
2.140999
10.622740
33.173561
103.709698
198.867917
385.575891
539.199710
720.334649
828.398466
877.760649
822.054744
658.302903
505.528450
309.157968
178.758502
73.874593
33.186674
9.772778
4.973412
4.238486
##ZVALUE=395
0.655651
0.692606
0.701547
0.631809
0.794530
0.707507
0.682473
0.550747
0.657439
0.651479
0.672936
0.569820
0.706911
0.589490
0.542998
0.715852
0.885725
0.644922
0.572801
0.707507
0.690818
0.560880
0.600815
0.726581
0.713468
0.739694
0.689626
0.800490
0.957847
0.776649
0.784993
0.782609
0.587702
0.759959
0.733733
0.753999
0.861883
0.800490
0.638962
0.738502
0.834465
0.869632
0.719428
0.902414
0.937581
0.905991
0.775456
0.771880
1.004934
0.883937
0.814795
0.728965
0.795722
0.969768
0.794530
0.768900
0.930429
0.945926
0.831485
0.934601
1.029968
0.792742
0.955462
0.990629
0.902414
1.080632
1.114607
1.312494
1.242757
1.357794
1.335740
1.285672
1.371503
1.410842
1.433492
1.416802
1.532435
1.574755
1.992583
6.123781
21.273494
74.512959
147.868991
296.589732
443.703532
653.333664
783.351660
878.940821
876.721740
744.310617
587.067008
366.021991
233.280659
109.425783
52.673817
17.286539
##ZVALUE=400
0.529885
0.549555
0.600815
0.457764
0.673532
0.607967
0.573993
0.535846
0.575781
0.670552
0.681877
0.676513
0.468493
0.578761
0.549555
0.463724
0.512600
0.593662
0.505447
0.523925
0.589490
0.457764
0.707507
0.595450
0.605583
0.676513
0.623465
0.702739
0.649691
0.731945
0.686646
0.765920
0.637770
0.479817
0.668764
0.653863
0.673532
0.688434
0.644922
0.622869
0.805855
0.711679
0.833869
0.618696
0.641942
0.632405
0.744462
0.677705
0.714660
0.741482
0.731945
0.787973
0.777841
0.794530
0.751615
0.787973
0.775456
0.847578
0.856519
0.871420
0.902414
0.793934
0.969768
0.874996
0.734925
0.947714
1.020432
0.867844
1.038909
1.187921
1.045465
1.218915
1.176000
1.073480
1.177788
1.199841
1.361966
1.297593
1.314878
1.411438
1.670718
3.515482
11.337996
41.848421
92.107654
210.456848
342.671871
548.528433
693.433881
828.160644
858.266950
772.835612
646.392703
448.731780
299.966931
151.582956
##END
