##TITLE=
##FORMAT=SPECTACLE-ASCII V-1.2
##DATA TYPE=ULTRAVIOLET SPECTRUM
##SECOND TYPE=ULTRAVIOLET SPECTRUM
##DATE=09/27/17
##TIME=13:08:14
##SPECTROMETER/DATA SYSTEM=SPECTACLE
##XUNITS=NM EM
##YUNITS=ENERGY
##YFACTOR=1
##FIRSTX=220
##LASTX=410
##NPOINTS=96
##3DDATA=Equidistant
##ZUNITS=NM EX
##FIRSTZ=210
##LASTZ=400
##ZPOINTS=39
##XYDATA=(Y..Y)
##ZVALUE=210
2.944469
2.645850
2.975464
2.676845
2.816916
2.922416
3.581643
3.477931
3.126860
3.740788
2.686977
3.923774
3.645420
4.056692
3.712773
4.450679
4.214644
4.727840
4.618764
4.604459
5.106926
5.372763
5.296469
6.479621
6.399751
5.908608
5.787611
6.846786
7.549524
8.140802
7.387996
7.492900
7.996559
7.345676
8.365512
9.673834
8.146763
8.711815
8.149743
8.891821
8.509755
8.318424
8.255839
9.217858
8.697510
9.369850
9.564757
9.781718
9.163618
9.570718
9.274483
10.711551
10.966659
10.152459
11.283755
10.301471
10.455847
11.044741
11.643767
10.206699
10.812879
10.360479
9.874701
11.655688
10.584593
11.917949
12.086630
13.709664
15.114546
16.008615
20.471811
21.667480
25.460720
28.834939
29.951930
32.199621
32.755733
32.239556
31.027794
28.480887
26.780963
24.390817
20.933747
18.318892
15.283823
14.404655
12.611747
11.481643
10.226965
10.211468
10.752678
11.695623
10.209680
9.239912
9.561777
10.503531
##ZVALUE=215
7.336736
6.740689
6.319880
5.292892
5.110502
4.890561
5.093813
5.507469
5.148649
5.720854
5.704761
6.013513
5.161762
5.198717
4.313588
4.116893
3.745556
5.176663
4.580617
4.820824
5.542636
5.155802
6.108880
5.992651
6.725788
7.207990
7.124543
7.553697
7.228851
7.356405
8.129478
9.036660
8.436441
8.539557
9.533763
9.076595
9.579659
8.915663
9.596944
9.689927
10.235906
9.233952
9.965897
9.501576
10.185838
9.657741
9.994507
9.217858
9.802580
10.181665
10.119677
9.756684
9.523630
9.804964
9.715557
10.382533
10.969639
11.592507
10.100603
10.938644
11.184812
11.651516
10.006428
11.362433
11.217594
10.656714
11.843443
12.871623
14.069676
16.112924
16.986728
19.135475
22.968650
26.661754
26.265979
26.235580
27.446747
27.009845
25.620461
25.536418
23.465753
21.431446
17.804503
16.607642
14.947653
13.202429
10.820627
11.347532
10.238886
9.941459
10.045767
9.186864
9.927750
9.711981
9.393692
8.787513
##ZVALUE=220
20.148754
20.826459
23.227930
24.488568
20.800829
20.759702
14.624596
14.011860
9.290576
10.842681
10.845661
12.516975
12.260675
11.502504
10.003448
7.872581
6.808639
6.315708
4.534721
5.554557
5.208850
5.283952
5.237460
6.958842
6.179810
6.414652
7.537603
8.115768
8.881688
8.915663
8.012652
8.969903
10.089874
9.052753
10.752678
9.544492
12.094975
11.797547
10.765791
10.919571
9.831786
11.238456
11.511445
11.631846
11.072755
11.484623
10.915995
11.142492
11.227727
12.116432
11.227727
12.716651
11.670589
13.471842
12.834668
12.284517
12.451410
11.722445
11.280775
11.954904
12.408495
12.655854
12.145638
11.989474
12.021661
11.890531
13.519526
14.276505
15.218854
17.018914
19.422770
25.062561
24.126768
25.683641
29.302835
27.705431
30.333996
30.242801
27.704835
28.045774
26.523471
24.155974
21.689534
19.849539
19.218922
16.372800
14.542937
13.893843
12.402534
11.992455
12.086630
12.443662
10.901690
10.678768
11.688471
10.901690
##ZVALUE=225
33.773780
36.211610
51.441789
65.685511
81.781745
83.262920
80.027580
62.216520
55.346489
41.001439
28.079748
25.464892
23.915768
24.063587
24.664998
24.755001
20.158887
18.733740
14.664531
9.961724
8.323789
7.445812
6.602407
6.796718
7.373691
7.938743
9.078979
8.568764
10.096431
8.749962
10.491610
9.836555
12.729764
12.485981
12.107491
12.503862
12.625456
11.052489
13.263822
13.765693
13.458729
13.104677
14.302731
14.148951
13.959408
15.380979
14.091730
14.645457
14.131665
14.445782
14.463663
15.397668
15.879869
16.287565
15.768409
16.094446
15.161633
15.511513
16.631484
16.054511
15.136600
17.460585
16.024709
15.994906
16.220808
17.812848
18.097758
18.967986
20.710826
21.341443
25.310516
25.227666
28.779507
31.161904
31.602979
32.889843
33.807755
32.284856
31.207800
30.337572
28.977990
26.229620
25.129914
24.424791
19.561648
19.394755
18.652678
16.917586
17.952919
16.827583
15.504956
16.607642
16.283989
17.632842
17.070770
14.856458
##ZVALUE=230
33.318996
36.433935
64.270496
106.747746
149.965882
196.166635
222.699642
238.471627
224.541426
192.026496
134.921670
97.423792
62.023997
49.371719
45.262575
48.333406
51.947832
49.310923
42.736530
39.565563
27.738810
20.282865
14.792681
10.821819
8.604527
8.674860
8.862615
9.037852
9.748936
10.691881
9.585619
10.683537
11.254549
11.685491
13.046861
13.879538
12.799501
13.726950
14.004707
15.818477
15.085936
15.665889
17.729998
17.314553
17.182827
16.417503
19.138455
19.341707
19.141436
21.382570
21.408796
21.242499
20.998716
21.229982
21.623969
21.104813
23.076534
22.993684
22.630692
24.143457
24.010539
24.856925
23.536682
23.370981
24.911761
24.882555
27.480721
27.689934
27.136803
30.676723
31.457543
35.484433
36.158562
40.853620
42.175651
41.722655
42.067766
41.306615
40.700436
38.168430
38.958788
35.442710
35.090446
32.453537
29.891729
27.316809
28.368831
27.355552
26.064515
25.821924
25.403500
22.710562
23.969412
22.948980
23.539662
23.021698
##ZVALUE=235
13.262630
15.523434
33.420920
84.557533
139.466524
232.253671
317.292809
424.638987
482.747555
498.909950
462.318659
395.987630
270.482898
194.146633
122.581720
87.019801
74.679852
75.789690
80.039501
83.173513
79.625845
68.534613
54.030418
38.999915
27.745962
17.849803
13.435483
10.817647
9.695888
9.324551
11.711717
10.379553
11.796951
12.239814
12.419820
12.053847
14.262795
15.704632
15.043616
16.940832
17.250776
19.553900
19.157529
22.357702
23.097992
26.947856
26.266575
28.332472
27.208924
29.588938
29.805899
29.195547
30.890703
32.616854
33.765435
32.603741
30.303597
31.923652
33.164620
33.895969
32.756925
34.473538
34.354925
34.248829
37.627816
34.244657
36.784410
38.837790
40.841699
42.468905
44.787526
47.708750
50.532818
51.826835
53.440928
55.292845
52.133799
54.095984
51.284432
50.905943
48.438907
47.142506
45.545697
45.047998
42.243600
39.508939
39.704442
39.031506
37.769675
37.455559
35.729408
37.773848
36.576986
36.768913
34.084916
33.815503
##ZVALUE=240
3.221631
3.272891
5.556941
23.431778
52.766800
126.212835
225.804448
401.070714
563.787818
750.537515
871.567726
894.609690
835.968852
676.633716
521.157980
375.692844
216.325521
148.007870
102.156997
101.389885
107.572675
117.490888
110.784769
100.013614
83.490610
65.459609
49.808621
30.821562
23.842454
16.445518
14.507771
12.210608
13.621449
12.874603
13.693571
15.262961
15.225410
16.507506
17.469525
20.134449
21.905899
22.738576
25.738478
26.596785
30.571818
30.477643
33.300519
35.303831
36.816597
39.097667
40.350556
40.513873
42.298436
44.034719
44.796467
44.321418
45.342445
46.950579
47.166944
46.999454
47.158599
47.625899
46.855807
46.925545
48.788786
46.730638
49.310923
47.263503
50.690770
54.960847
57.721734
57.164431
63.320994
63.563585
65.339804
65.381527
64.301491
65.021515
64.831972
60.443878
56.943893
57.152510
57.513714
54.264665
52.075982
52.476525
50.464869
46.192408
49.027801
46.951771
47.148466
45.243502
44.111609
42.745471
44.148564
42.172670
##ZVALUE=245
2.989769
2.830625
3.046989
2.908707
4.742742
17.483830
43.443441
121.361613
226.482749
374.540687
642.202497
849.568844
1015.805006
1015.805006
1015.805006
932.402015
694.162846
504.402518
342.319012
191.321969
127.324462
103.423595
115.686655
126.574636
128.916502
125.741959
110.441446
94.449520
75.863600
51.936507
38.559437
24.844408
18.600821
15.422702
14.437437
14.252663
15.697479
16.958714
16.984940
20.349622
23.201704
25.022626
26.899576
29.239655
32.077432
34.318566
37.285686
38.402677
40.379763
42.054653
42.641759
47.953725
42.843819
47.977567
47.197938
48.156977
47.803521
48.273802
47.654510
48.059821
46.927929
48.229694
47.745705
47.225952
46.742558
46.899915
49.267411
46.371818
47.972798
52.172542
52.326918
53.561926
53.719878
54.331422
58.864951
61.638951
59.385896
59.283972
56.462884
57.591796
55.027604
54.299831
53.737760
48.471689
48.054457
49.437881
46.457648
46.446919
44.673681
46.541691
44.230819
44.658780
45.134425
44.008493
42.417645
44.004917
##ZVALUE=250
2.260804
2.211928
2.513528
2.294779
2.233982
2.428889
3.450513
9.745955
38.483739
84.756613
214.944482
367.380977
555.557013
834.424496
1008.979678
1015.701890
1015.701890
1015.701890
942.023993
661.071539
437.103510
273.199677
144.040585
107.188821
104.761720
121.503472
133.881569
139.187574
133.851767
123.028755
108.239651
79.937577
60.280561
40.200949
29.185414
20.519495
16.664863
16.050935
17.700791
20.109415
21.583438
24.596453
27.620792
28.808713
31.764507
33.409595
36.178827
39.127469
41.110516
43.091774
43.124557
45.916438
46.495795
46.413541
47.718883
46.716928
47.987700
47.241449
48.729777
46.282411
43.718815
45.141578
44.585466
44.444799
43.861866
44.020414
43.428540
44.437647
43.000579
45.098662
46.651959
48.630834
48.630834
50.517917
50.211549
49.867630
49.502850
49.979687
51.237941
48.429966
49.002767
46.417713
45.901537
44.955611
43.409467
43.406487
43.617487
43.189526
40.510893
42.347908
40.026903
42.160749
40.961504
38.912892
39.419532
39.957762
##ZVALUE=255
2.023578
2.312660
2.374649
2.427697
2.326965
2.377629
2.645850
2.719760
2.872944
5.622506
26.413798
66.281557
141.692758
320.262909
513.422489
827.091932
1015.911698
1015.911698
1015.911698
1015.911698
1015.911698
928.719640
579.763651
361.955762
183.281898
118.738413
96.619725
106.502771
130.047798
140.296817
147.044659
144.056678
133.928657
107.908845
86.087584
61.009526
45.218468
30.901432
24.104714
20.111799
22.414923
22.776723
24.809837
27.956963
29.398799
31.733513
33.470988
36.647916
36.612749
40.134788
40.802956
40.194988
44.119954
43.201447
43.195486
40.778518
42.387843
41.833520
40.515661
40.107965
40.454865
41.699409
39.325953
38.332939
38.947463
38.269758
38.493872
36.811829
36.929846
39.476752
39.418936
40.141940
41.731000
41.099787
42.610765
42.244792
42.766929
42.642951
43.085814
42.209625
40.448904
41.163564
38.924813
39.475560
39.981604
39.379001
38.581491
40.481687
37.979484
36.613941
37.090778
37.702918
37.428737
35.686493
36.511421
36.676526
##ZVALUE=260
1.864433
1.936555
2.269745
2.058744
1.998544
2.199411
2.066493
2.473593
2.140999
2.527833
2.580881
3.293753
13.579726
39.191842
115.879774
229.662657
486.712456
722.190738
950.268507
1015.805006
1015.805006
1015.805006
1015.805006
1015.805006
827.221870
481.621623
305.128694
156.430006
104.023814
92.412829
107.060671
133.444667
148.507953
154.308677
150.673985
135.405660
118.669868
86.055994
65.281987
47.662854
36.664605
27.892590
25.015473
25.384426
25.571585
27.433634
28.850436
30.337572
31.395555
33.100843
33.853650
33.745766
35.293698
34.135580
35.989881
34.650564
32.645464
34.172535
33.197999
31.972528
32.923818
32.826662
32.532811
30.476451
31.366944
31.282902
31.128526
33.201575
32.372475
32.154918
34.369826
34.834743
34.476519
36.330819
37.298799
35.800934
36.905408
36.576986
36.381483
36.094785
36.233664
36.497712
35.933852
34.956932
34.256577
34.543872
33.629537
34.844875
33.068657
35.104752
33.468604
33.224821
33.620596
32.729506
32.939911
34.231544
##ZVALUE=265
1.625419
1.732707
1.529455
1.804829
1.852512
1.854897
2.003908
2.304912
2.463460
2.012849
2.359748
2.805591
2.810955
3.120899
7.569790
26.331544
93.472600
185.834765
406.352878
658.356547
1014.013886
1015.805006
1015.805006
1015.805006
1015.805006
1015.805006
1015.805006
684.354901
438.634753
221.187472
128.119588
84.607601
89.491010
115.868449
137.137771
158.353448
162.232518
155.739784
137.775540
114.178658
93.002915
66.664815
49.121976
36.570430
30.438900
27.000904
26.748776
26.498437
25.314689
28.070807
29.351711
28.294921
29.059649
29.055476
28.456450
29.086471
28.085709
26.739836
28.492808
27.204752
27.814507
26.512742
26.498437
26.810765
27.036667
27.391911
26.690960
27.221441
28.456450
28.460622
29.678941
30.108690
32.208562
31.613708
32.437444
32.774806
33.140779
32.728910
33.992529
33.160448
31.637549
31.503439
31.621456
31.078458
32.139421
31.195879
31.308532
32.625794
31.870604
31.256676
32.117963
32.167435
30.639768
31.347871
30.766726
30.808449
##ZVALUE=270
1.773834
1.737475
1.598597
1.542568
1.719594
1.925826
1.583695
1.790524
1.883507
2.229810
1.979470
2.163649
2.172589
2.300739
2.773404
3.025532
3.638864
14.655590
46.069622
151.804686
311.319828
550.435781
974.311829
1015.805006
1015.805006
1015.805006
1015.805006
1015.805006
1015.805006
983.356833
660.578609
353.691578
192.577839
90.459585
73.748827
93.018413
113.967657
142.919421
157.628655
163.964629
159.409642
143.972635
123.233795
93.853474
73.324442
49.996972
40.069818
30.577779
27.753711
26.737452
25.044680
25.337934
25.824904
25.593638
25.214553
24.765730
25.270581
25.095940
25.405884
24.723411
23.263693
23.907423
23.996830
24.675727
24.670959
24.886727
23.906827
24.790764
25.692582
26.990771
27.658939
27.355552
29.500723
29.922724
31.541586
32.376647
31.159520
31.668544
30.936599
30.746460
29.863715
30.401945
29.321909
30.355453
29.247999
29.447675
29.608607
30.228496
29.282570
29.328465
30.017495
29.466748
30.125976
29.178858
28.712749
29.511452
##ZVALUE=275
1.657605
1.345873
1.520514
1.642704
1.642704
1.782775
1.661777
1.527667
1.756549
2.021790
1.672506
1.805425
2.329946
2.228618
2.141595
2.349615
2.934933
2.774596
2.914667
7.292628
27.514696
82.828999
256.682038
488.976836
929.492712
1015.805006
1015.805006
1015.805006
1015.805006
1015.805006
1015.805006
1015.805006
893.895626
468.769670
265.606642
113.053918
69.070458
68.002939
87.799430
117.068887
136.449933
157.130957
165.317655
160.522461
145.124793
118.263960
98.126531
72.131753
55.645704
39.677620
31.666756
27.120709
24.509430
24.512410
23.262501
23.269653
23.100972
23.393631
23.718476
23.724437
24.076700
23.446679
24.092793
23.308992
24.370551
24.586916
24.796724
25.079846
25.712848
26.743412
27.655959
28.002858
27.456880
30.473471
29.302835
30.158758
30.485988
30.449629
29.373765
28.901696
30.044913
29.128790
28.943419
28.279424
28.977990
28.233528
29.358864
28.238893
28.317571
27.565956
28.825998
27.558804
28.743744
27.941465
27.446747
27.817488
##ZVALUE=280
1.555681
1.492500
1.249909
1.455545
1.615882
1.564622
1.439452
1.473427
1.555681
1.559854
1.897812
1.714826
1.961589
1.982450
2.062917
2.224445
2.016425
2.346635
2.511740
2.727509
3.187656
3.537536
16.650558
56.646466
185.289979
348.000526
683.199763
992.136002
1015.805006
1015.805006
1015.805006
1015.805006
1015.805006
1015.805006
1011.489630
595.932603
351.032615
150.357485
78.077912
52.935481
62.926412
89.903474
114.736557
139.853954
153.264999
160.618424
158.324838
136.764646
120.231509
92.720985
71.057677
52.201748
40.143728
30.023456
25.726557
22.465587
22.447705
21.924973
22.288561
22.305846
21.710992
22.275448
22.980571
22.946000
24.106503
24.200678
24.168491
25.060773
25.029778
26.453733
26.567578
26.458502
28.259754
28.642416
28.735995
29.871464
29.283762
29.266477
28.915405
29.124618
28.378963
29.161572
27.457476
29.032826
27.433634
28.297901
27.961731
28.824806
26.972890
26.656985
27.655959
26.336908
27.167797
26.675463
26.316643
26.535988
##ZVALUE=285
1.056790
1.206994
1.115799
1.131892
1.231432
1.229644
1.247525
1.180768
1.349449
1.235604
1.516938
1.320839
1.428723
1.438856
1.648664
1.584888
1.717806
1.731515
1.801848
2.146959
2.231598
2.377629
3.089905
3.054738
8.496642
30.110478
105.522871
221.511722
490.774512
807.304978
1015.605927
1015.605927
1015.605927
1015.605927
1015.605927
1015.605927
1015.605927
819.014907
510.156751
237.824917
118.517876
51.375628
43.697953
61.223507
82.243681
111.310482
131.223798
149.054527
157.647729
150.719881
140.267611
116.436481
97.636580
69.158673
52.569509
35.925508
28.209686
23.095608
21.539927
21.338463
21.470785
21.168590
22.117496
22.118688
22.535920
22.567511
23.178458
24.620891
24.248958
24.949908
25.534630
26.170611
27.236938
28.135777
27.490854
28.623939
27.679801
27.827621
27.967691
28.443933
28.433800
27.182698
27.567744
27.533770
27.883649
26.926994
26.382804
27.663708
26.729703
26.953816
26.373863
26.341677
25.380850
25.923848
25.450587
26.043653
##ZVALUE=290
1.125932
1.213551
1.143813
1.365542
1.434684
1.146793
1.275539
1.317859
1.280904
1.479983
1.340508
1.284480
1.672506
1.481771
1.523495
1.637936
1.523495
1.808405
1.806617
1.915693
1.739860
2.088547
2.407432
2.469420
2.687573
3.222823
3.724694
17.154813
51.613450
163.347721
315.424800
660.673976
989.331603
1015.805006
1015.805006
1015.805006
1015.805006
1015.805006
1015.805006
998.781919
686.071515
338.590741
174.835920
64.860582
36.899447
40.181875
54.600835
78.808665
99.582672
125.206709
140.017867
148.076415
147.390962
132.035613
112.564564
87.949634
68.612695
46.979785
37.276745
27.279854
23.113489
21.029711
21.031499
20.484924
20.763874
21.751523
21.828413
22.532940
23.419857
23.568869
24.894476
25.275946
25.872588
26.609898
27.360916
27.283430
27.079582
27.084947
27.417541
27.592778
27.099848
27.295947
27.316809
27.456880
26.976466
27.103424
26.483536
26.933551
26.944876
26.357770
26.366711
26.042461
25.903583
25.445819
25.455952
24.785995
##ZVALUE=295
1.154542
1.075864
1.143813
1.041889
1.081824
1.050830
1.029968
1.158714
0.934601
1.045465
1.136661
1.125932
1.337528
1.101494
1.299977
1.214743
1.417994
1.463890
1.520514
1.373887
1.530647
1.841784
1.848936
1.950860
2.386570
2.436638
2.498627
2.707839
3.279448
5.885959
29.778481
87.726712
204.033852
494.881868
817.765594
1015.677452
1015.677452
1015.677452
1015.677452
1015.677452
1015.677452
1015.677452
873.518586
445.123911
242.043734
89.818835
42.317510
26.987791
33.918619
52.204728
68.400502
95.842481
113.098621
132.968426
141.208768
139.131546
127.438903
106.124878
88.732839
64.710975
49.807429
34.319758
26.673675
21.858811
20.093918
19.547939
20.123720
20.735860
21.084547
22.225976
22.560954
23.825765
24.577975
24.923682
25.500655
25.964975
25.679469
25.693774
26.073456
26.256442
26.576519
26.727915
26.197433
26.926994
26.409626
26.905537
25.891662
26.730895
26.266575
26.099682
25.063753
25.545955
25.383830
25.853515
24.970770
24.848580
##ZVALUE=300
1.082420
1.121759
1.019835
1.139641
1.176000
1.217723
1.139641
1.103878
1.196861
1.213551
1.330972
1.254678
1.181960
1.219511
1.056790
1.289845
1.559854
1.582503
1.431704
1.442432
1.601577
1.771450
1.653433
1.733899
2.023578
2.293587
2.250671
2.303720
2.596974
2.664924
3.102422
3.716946
14.110804
48.072934
165.614486
328.146815
691.267848
1012.767553
1015.805602
1015.805602
1015.805602
1015.805602
1015.805602
1015.805602
1012.443900
699.734688
344.512463
182.699561
64.898729
28.711557
23.147464
31.384826
47.351718
63.618422
88.846684
107.144713
127.604604
133.233666
131.913424
123.838782
105.252862
88.099837
65.205693
50.624609
35.476685
28.045774
23.220778
21.116734
21.006465
21.091700
22.131801
22.936463
24.198890
24.377704
24.953485
24.496913
26.389956
26.334524
26.856661
26.701689
26.359558
26.603937
26.847720
26.760697
26.759505
27.585626
26.693940
26.872754
26.616454
25.599599
26.121736
26.163459
25.210977
25.654435
25.054812
25.276542
##ZVALUE=305
0.977516
1.133680
1.005530
0.965595
1.164675
0.918508
0.958443
1.023412
1.094937
0.858903
1.185536
1.146793
1.133680
1.155734
1.217723
1.238585
1.057982
1.372695
1.181960
1.358986
1.450777
1.435876
1.461506
1.623631
1.726747
1.754761
1.845956
1.902580
2.067685
2.121925
2.386570
2.527833
2.791882
3.224611
5.600452
32.426715
92.852712
269.375443
490.988493
938.072801
1015.741825
1015.741825
1015.741825
1015.741825
1015.741825
1015.741825
1015.741825
862.386823
537.612438
240.997672
115.456581
37.627816
20.398498
21.703839
28.742552
45.429468
61.650872
85.353851
101.977587
122.448802
127.818584
126.253963
119.871497
101.518631
85.218549
62.880516
49.796700
36.531687
28.801560
24.215579
23.092628
22.529960
22.957921
24.428964
24.258494
24.619699
25.350451
25.061965
26.325583
27.101636
26.736856
27.263761
27.125478
27.565956
27.628541
27.225614
27.129650
26.827455
26.760697
27.179718
26.643872
26.764870
26.417971
25.734901
25.593638
25.604963
##ZVALUE=310
1.021624
0.967979
1.115799
0.918508
0.868440
1.021624
0.956655
1.139641
1.013875
1.020432
1.212955
0.966787
1.030564
1.099706
1.151562
1.195669
1.307726
1.313686
1.292825
1.297593
1.436472
1.488924
1.396537
1.576543
1.598597
1.789927
1.560450
1.782775
1.896620
1.918674
1.830459
2.136827
2.378821
2.640486
2.726912
3.001690
3.596544
13.793707
47.319531
164.754987
329.925418
703.709722
1015.806794
1015.806794
1015.806794
1015.806794
1015.806794
1015.806794
1015.806794
1015.806794
752.155781
367.681980
192.710757
65.982938
27.163625
17.192960
20.015836
28.230548
39.188862
57.481527
74.707866
97.765923
111.162663
123.570561
122.563839
113.734603
103.179812
84.348917
67.788959
49.438477
39.131641
31.213760
27.466416
25.156736
25.153756
25.106668
25.097728
25.560856
26.493669
26.990771
27.318597
27.353764
27.931929
28.393865
27.937889
28.514862
28.012991
28.486848
27.785897
27.800798
28.120875
28.011799
26.150942
27.011633
25.858879
26.267767
##ZVALUE=315
0.793934
0.907779
0.982881
1.101494
0.965595
1.014471
0.613928
0.887513
1.199841
0.958443
1.095533
1.035929
1.061559
1.111627
1.052618
1.174808
1.064539
1.104474
1.259446
1.288652
1.188517
1.337528
1.272559
1.103878
1.328588
1.470447
1.386404
1.566410
1.574755
1.802444
1.754761
1.770854
1.906753
1.990795
2.084970
2.398491
2.571940
2.733469
3.235936
6.735921
24.656653
106.129646
238.799453
546.525717
889.654756
1015.805006
1015.805006
1015.805006
1015.805006
1015.805006
1015.805006
1015.805006
958.136916
508.556962
272.095799
97.793937
39.478540
17.167926
15.776753
19.815564
25.451779
39.244890
52.242875
73.018670
89.473724
107.055902
116.876960
118.156672
112.560987
98.538995
83.913803
65.562725
52.731633
39.093494
33.561587
28.484464
26.597977
26.383996
26.452541
26.555657
27.157664
28.105974
28.186440
28.450489
28.708577
29.009581
28.983951
29.041767
28.681755
28.309822
27.785897
27.936697
27.664900
27.614832
26.826859
26.408434
##ZVALUE=320
0.928640
1.085997
0.924468
0.831485
0.798702
0.936985
0.921488
0.982881
0.958443
0.901818
0.881553
1.015663
1.026988
0.989437
0.894666
1.197457
1.133680
1.053810
1.221895
1.090765
1.238585
1.282692
1.213551
1.268983
1.298785
1.210570
1.278520
1.411438
1.487732
1.657605
1.683831
1.725554
1.790524
1.786947
1.975894
2.060533
2.158880
2.495646
2.643466
2.815723
2.858639
3.910661
10.840893
58.998466
153.377652
411.652923
691.659451
1015.824676
1015.824676
1015.824676
1015.824676
1015.824676
1015.824676
1015.824676
1015.824676
668.194890
381.863713
159.037709
69.217682
21.343827
14.520884
15.347600
18.393993
24.966598
33.814907
51.341653
66.172481
84.140897
99.091530
112.483501
114.564896
108.520985
98.055601
80.691576
66.631436
50.346851
41.460991
33.708811
30.436516
28.064847
27.297735
27.786493
28.051734
28.351545
28.583407
28.570890
28.421879
29.081702
28.550625
28.376579
28.219819
27.701855
27.465820
27.425885
26.960969
26.160479
##ZVALUE=325
0.927448
0.878572
0.783801
0.916719
0.996590
0.848770
0.944734
0.881553
0.839829
0.795722
0.963807
1.006722
0.823736
0.949502
0.941753
0.886917
0.783801
1.009703
0.949502
1.028776
1.208782
1.212955
1.096725
1.263618
1.369715
1.234412
1.012683
1.290441
1.181960
1.267791
1.334548
1.328588
1.426935
1.621842
1.663566
1.850724
1.828671
1.772642
2.076626
2.044439
2.372861
2.727509
2.667904
3.335476
6.033778
37.401915
103.455782
288.540721
527.716875
965.094566
1015.805006
1015.805006
1015.805006
1015.805006
1015.805006
1015.805006
1015.804410
812.718868
502.105951
223.180652
103.794932
30.476451
15.266538
13.661981
14.741421
18.248558
23.899674
36.314726
48.044920
66.949725
82.483888
99.748969
107.863545
110.029578
105.563998
91.329813
78.427792
62.225461
50.709844
40.256977
34.063458
30.179620
28.518438
27.954578
27.588606
27.895570
28.225780
28.326511
27.936697
27.642846
27.504563
27.784705
27.586818
26.526451
27.315617
26.896000
##ZVALUE=330
0.904799
0.841618
0.839829
0.789762
0.937581
0.843406
0.881553
0.834465
0.909567
0.947714
0.899434
0.709891
0.921488
0.909567
1.001954
0.829697
0.898838
1.047850
0.974536
0.970960
0.893474
1.099706
1.158714
0.990629
1.135468
1.138449
1.089573
1.124740
1.205802
1.300573
1.142621
1.401901
1.295805
1.412630
1.697540
1.641512
1.570582
1.736879
1.691580
1.912713
1.854897
2.204776
2.346635
2.465844
2.632737
3.123879
3.948808
17.069578
57.092905
195.184946
383.560658
787.041783
1015.805006
1015.805006
1015.805006
1015.805006
1015.805006
1015.805006
1015.805006
991.060734
667.667389
307.655931
153.122544
53.239465
22.026896
13.796687
13.700724
15.395880
18.584728
25.917888
34.330487
48.999786
62.317848
81.749558
93.762875
102.824569
104.554892
98.384619
88.973641
73.863864
61.340928
47.472715
40.871501
34.251809
30.613542
28.278828
27.624965
27.816892
27.067661
26.815534
27.548671
26.399493
26.440620
26.426911
25.993586
26.076436
##ZVALUE=335
0.774860
0.719428
0.632405
0.733733
0.668764
0.761747
0.837445
0.910759
0.782609
0.815988
0.981688
0.747442
0.852942
1.059771
0.855923
1.002550
0.981688
1.000762
0.829697
0.887513
0.904799
0.875592
1.057982
1.059771
1.017451
1.194477
1.075864
1.208782
1.151562
1.280904
1.178980
1.217723
1.309514
1.215935
1.219511
1.436472
1.375675
1.342893
1.527667
1.560450
1.630783
1.878738
1.688600
1.963973
2.033710
2.331734
2.462864
2.691746
3.198981
7.601976
28.098822
115.027428
249.587893
575.261712
952.376723
1015.805006
1015.805006
1015.805006
1015.805006
1015.805006
1015.805006
1015.805006
776.906013
470.997691
204.110742
91.244578
27.058721
15.373826
13.916492
14.909506
16.884804
19.785762
26.821494
34.737587
48.028827
60.109496
76.728463
88.204741
97.638965
99.297762
92.688799
83.953738
72.194934
60.642958
48.369765
40.797591
33.565760
30.189753
27.158856
26.404858
25.701523
25.516748
25.252700
25.142431
24.990439
25.129914
##ZVALUE=340
0.624657
0.664592
0.812411
0.663996
0.663996
0.672936
0.804663
0.818968
0.573993
0.795722
0.917912
0.822544
0.902414
0.785589
0.759959
0.867844
0.897646
0.808835
0.843406
0.917912
0.919700
1.079440
1.052618
1.028776
1.105666
0.910759
0.950694
1.043677
1.007915
1.217723
1.066923
1.024604
1.156926
1.207590
1.179576
1.200438
1.352429
1.354814
1.333952
1.381636
1.495481
1.662970
1.705885
1.660585
1.738667
1.878738
2.084970
2.161860
2.573729
2.634525
3.352761
3.884435
17.570853
57.772994
194.031596
395.361781
840.960741
1015.805006
1015.805006
1015.805006
1015.805006
1015.805006
1015.805006
1015.805006
942.657590
591.056943
273.335576
130.208731
38.068891
17.652512
14.225841
14.983416
15.526414
16.866922
20.861626
24.806857
34.934878
44.846535
61.058998
73.132515
86.305737
92.475414
92.651844
89.682937
80.252886
70.456862
57.585835
47.989488
38.588643
32.533407
27.994514
25.792718
24.502873
24.041533
23.986697
24.083853
##ZVALUE=345
0.872612
0.805855
0.623465
0.737906
0.783801
0.712872
0.937581
0.816584
0.692606
0.814795
0.757575
0.646710
0.752807
0.697970
0.761747
0.788569
0.747442
0.984669
0.819564
1.089573
1.003742
1.033545
0.964999
0.984669
0.877976
1.013875
1.098514
0.922680
1.017451
1.060963
1.000762
1.065731
1.087785
1.026988
1.229644
1.183748
1.124740
1.230836
1.380444
1.301765
1.294613
1.518726
1.361966
1.515746
1.609921
1.919866
1.847744
1.853704
2.039671
1.988411
2.413988
2.426505
2.982616
3.354549
6.204844
38.732886
115.399957
341.611505
648.358464
1015.810966
1015.810966
1015.810966
1015.810966
1015.810966
1015.810966
1015.810966
1015.810966
728.640556
405.376554
158.997774
70.699453
24.242997
15.956759
14.959574
15.249848
15.794635
16.908646
19.662976
24.005771
33.137798
42.521954
57.417750
67.146420
78.562498
83.937645
86.554885
84.670782
75.681806
67.360997
55.752993
46.329498
36.163926
30.986667
26.388764
24.375916
23.238659
##ZVALUE=350
0.725985
0.719428
0.842810
0.807643
0.868440
0.776649
0.662804
0.626445
0.756979
0.805855
0.784993
1.004934
0.839829
0.761747
0.806451
0.727773
0.862479
0.860691
0.760555
0.741482
0.773668
0.964999
0.733733
1.042485
0.813603
0.774860
1.016855
0.826716
1.037717
1.007915
1.193881
1.056790
0.988841
1.158714
1.115799
1.103878
1.076460
1.025796
1.204610
1.172423
1.217723
1.434684
1.240969
1.377463
1.423955
1.404881
1.702905
1.580715
1.575947
1.784563
1.781583
1.860857
2.160668
2.408624
2.544522
2.809763
3.974438
19.187927
63.529611
206.627250
404.219627
835.450888
1015.805006
1015.805006
1015.805006
1015.805006
1015.805006
1015.805006
1015.805006
831.905007
511.264801
233.170986
106.960535
31.430721
16.363859
13.765693
13.833642
13.616681
14.627576
15.883446
18.536448
23.542643
29.327869
38.998723
47.695637
60.836673
69.475770
76.923966
79.363585
77.169538
72.392821
61.423779
52.970648
41.853786
34.845471
29.072762
##ZVALUE=355
0.669956
0.803471
0.737906
0.718832
0.858903
0.735521
0.630617
0.614524
0.739694
0.575781
0.749826
0.861883
0.818968
0.863671
0.679493
0.975728
0.768900
0.787973
0.815988
0.867844
0.733733
0.789762
0.814795
0.773668
0.933409
0.838637
0.966787
0.838637
0.974536
1.054406
1.122952
0.974536
0.946522
0.996590
1.122952
1.034737
1.022816
1.047850
1.147985
1.255870
1.372695
1.211762
1.222491
1.320839
1.312494
1.497865
1.352429
1.560450
1.391768
1.714826
1.566410
1.728535
1.883507
1.930594
2.198815
2.224445
2.528429
2.847910
3.070831
8.932948
33.205748
133.555532
277.456045
595.691800
952.816010
1015.809774
1015.809774
1015.809774
1015.809774
1015.809774
1015.809774
988.648534
648.247600
287.931561
137.838721
41.985512
18.613935
13.024807
12.401938
12.514591
13.115406
13.682842
14.926791
17.384887
20.356774
26.568770
33.720732
44.205785
52.739978
62.574744
69.558620
71.954727
70.957541
65.794587
59.419870
49.407482
##ZVALUE=360
0.676513
0.856519
0.698566
0.706911
0.655651
0.686646
0.710487
0.691414
0.642538
0.709891
0.802875
0.704527
0.726581
0.906587
0.788569
0.791550
0.780821
0.818968
0.903606
0.869632
0.763535
0.761747
0.826716
0.833869
0.870824
0.930429
0.924468
0.842810
0.935793
0.856519
0.819564
0.841618
0.904799
1.064539
0.976920
1.101494
1.147985
1.101494
1.113415
1.126528
1.246929
1.321435
1.098514
1.231432
1.286864
1.353621
1.344681
1.447797
1.472831
1.437664
1.627803
1.729727
1.666546
1.868606
2.017617
2.038479
2.086759
2.296567
2.526641
2.732873
3.061891
4.711747
14.442801
66.528916
161.896944
401.084423
702.476501
1015.805006
1015.805006
1015.805006
1015.805006
1015.805006
1015.805006
1015.805006
793.795586
388.292670
201.421976
71.193576
28.582811
12.926459
12.182593
11.989474
12.264848
12.634993
12.796521
13.814569
14.804602
18.090606
21.951795
29.079914
36.428571
46.712756
54.256916
61.560869
64.530969
65.580606
##ZVALUE=365
0.717640
0.536442
0.646710
0.676513
0.745654
0.726581
0.632405
0.734925
0.671744
0.743866
0.711679
0.718832
0.741482
0.710487
0.761747
0.699759
0.809431
0.715852
0.885725
0.892878
0.942945
0.725985
0.828505
0.924468
0.855923
0.881553
0.864863
1.040697
0.772476
0.804663
0.746846
0.926852
1.071692
1.088977
1.034737
1.148582
1.009703
1.092553
1.023412
0.969768
1.276731
0.998974
1.167655
1.281500
1.213551
1.101494
1.213551
1.234412
1.199841
1.450777
1.424551
1.314878
1.413822
1.601577
1.665950
1.718998
1.904964
2.053976
2.142787
2.255440
2.421737
2.597570
3.061891
3.486872
6.247759
35.948753
99.370480
271.861553
515.304804
968.183875
1015.765667
1015.765667
1015.765667
1015.765667
1015.765667
1015.765667
967.857838
540.598631
291.328430
103.578568
40.112734
14.149547
11.722445
11.233687
11.367798
11.271834
11.234879
11.661649
12.061000
13.498664
15.403628
19.611716
23.673773
31.834841
38.521886
47.482848
##ZVALUE=370
0.595450
0.764728
0.740886
0.750422
0.764728
0.850558
0.779629
0.627637
0.777841
0.704527
0.817776
0.886917
0.959635
0.686646
0.661612
0.826716
0.844598
0.741482
0.751615
0.839829
0.812411
0.837445
0.948906
1.030564
0.858903
0.884533
0.854731
0.927448
0.872612
0.830889
0.925660
0.963807
0.948906
1.026988
0.959635
1.092553
1.131892
1.119971
1.001954
1.230836
1.179576
1.149774
1.217723
1.115799
1.208782
1.246929
1.210570
1.250505
1.195669
1.341701
1.372695
1.166463
1.364946
1.479983
1.427531
1.456738
1.723766
1.501441
1.689792
1.952648
1.906753
2.308488
2.164841
2.640486
2.746582
3.000498
4.059672
19.052625
63.622594
205.863714
408.418775
808.702707
1015.806794
1015.806794
1015.806794
1015.806794
1015.806794
1015.806794
1015.806794
676.393509
381.116867
148.215890
64.726472
20.195842
11.565685
10.422468
10.117888
10.327697
10.260940
10.325909
10.820627
11.378527
11.976957
14.059544
16.563535
21.813512
##ZVALUE=375
0.680685
0.736713
0.715852
0.795722
0.759959
0.634789
0.841618
0.766516
0.746846
0.865459
0.724792
0.649691
0.820756
0.938773
0.802875
0.743866
0.770688
0.716448
0.768900
0.687838
0.746846
0.713468
0.567436
0.889897
0.760555
1.006722
0.728965
0.861883
0.963807
0.803471
0.886917
0.941753
0.949502
0.967979
1.087785
0.909567
0.869632
0.974536
0.855923
1.059771
0.936985
0.993609
1.158714
1.195669
1.271963
1.122952
1.103878
1.191497
1.245737
1.277924
1.071692
1.182556
1.170635
1.273751
1.238585
1.411438
1.330972
1.515746
1.531839
1.485944
1.525879
1.767874
1.823902
1.984835
2.150536
2.263784
2.356768
2.748966
3.259778
9.418726
32.681823
125.709772
276.241899
631.946921
975.692868
1015.813947
1015.813947
1015.813947
1015.813947
1015.813947
1015.813947
920.506716
580.238700
273.108482
131.396651
38.796663
15.653968
9.652972
9.572506
9.401441
9.349585
9.462833
9.429455
9.761453
10.247827
10.945797
##ZVALUE=380
0.597835
0.620484
0.555515
0.668764
0.652671
0.601411
0.748634
0.696778
0.722408
0.606775
0.738502
0.573993
0.607967
0.793934
0.706911
0.541806
0.622869
0.673532
0.737906
0.655651
0.739694
0.779629
0.625849
0.691414
0.799894
0.845790
0.710487
0.856519
0.806451
0.882745
0.821948
0.922680
0.863671
0.710487
0.787973
0.899434
1.034737
0.871420
0.997782
0.926852
0.877976
0.933409
0.918508
0.965595
0.864863
1.049638
0.860691
1.038909
0.975728
1.081824
1.063943
1.153946
1.140833
1.163483
1.235604
1.180768
1.101494
1.352429
1.363754
1.426935
1.498461
1.688600
1.609921
1.768470
1.645684
1.893640
1.941919
2.124906
2.356768
2.818704
3.456473
4.948974
22.292733
71.722865
227.952003
431.572795
859.362483
1015.766859
1015.766859
1015.766859
1015.766859
1015.766859
1015.766859
1015.766859
885.151029
525.125861
211.242437
88.963509
22.103786
10.672808
8.889437
8.670688
8.637905
8.748770
8.657575
8.862615
##ZVALUE=385
0.698566
0.506639
0.690818
0.555515
0.533462
0.689626
0.631809
0.670552
0.644922
0.641942
0.876784
0.667572
0.782609
0.715852
0.861883
0.706911
0.799894
0.687838
0.753999
0.794530
0.706911
0.767708
0.719428
0.522733
0.660419
0.809431
0.676513
0.722408
0.765920
0.748634
0.775456
0.824928
0.656843
0.786781
0.833869
0.774860
0.759959
0.870824
0.883937
0.845790
1.003742
0.891685
0.964999
0.891685
0.987649
0.936985
0.819564
1.013875
1.061559
1.107454
1.010895
1.085997
1.088977
0.934601
1.103878
1.116991
1.101494
1.137853
1.132488
1.248717
1.271963
1.418591
1.413822
1.365542
1.366735
1.560450
1.646876
1.830459
1.866817
2.257824
2.212524
2.647638
2.867579
3.362894
8.075833
48.247576
128.585696
342.942476
623.156428
1015.805006
1015.805006
1015.805006
1015.805006
1015.805006
1015.805006
1015.805006
974.784493
554.389954
318.044424
129.977465
50.458908
12.981892
8.261800
7.798672
7.893443
8.031726
##ZVALUE=390
0.602603
0.777841
0.776649
0.559688
0.797510
0.565648
0.666976
0.557899
0.689626
0.580549
0.701547
0.654459
0.573993
0.649691
0.794530
0.630617
0.642538
0.584722
0.633597
0.590682
0.640750
0.513792
0.843406
0.726581
0.668764
0.687838
0.724792
0.631809
0.735521
0.981688
0.799894
0.753999
0.535846
0.686646
0.797510
0.747442
0.892878
0.705719
0.761747
0.791550
0.931621
0.766516
0.898838
0.867844
0.696778
0.882745
0.877976
0.823736
0.941753
0.756979
0.915527
0.803471
1.010895
0.921488
1.082420
1.061559
0.985861
1.112819
1.040697
1.123548
1.250505
1.034737
1.174808
1.459718
1.379848
1.341701
1.659989
1.764894
1.789927
2.070665
2.246499
2.377629
2.575517
2.751946
2.615452
3.085732
4.463792
25.007725
82.391500
263.641477
510.284901
970.565677
1015.805006
1015.805006
1015.805006
1015.805006
1015.805006
1015.805006
1015.804410
711.067915
408.901572
162.533522
72.416663
19.461513
9.244680
7.480979
##ZVALUE=395
0.657439
0.592470
0.654459
0.550747
0.612736
0.433922
0.428557
0.591874
0.601411
0.770688
0.677705
0.600815
0.595450
0.790954
0.655651
0.602603
0.616908
0.720620
0.714660
0.610948
0.696778
0.612736
0.612736
0.682473
0.820756
0.819564
0.693798
0.652671
0.575781
0.694990
0.605583
0.741482
0.602603
0.646710
0.755787
0.665784
0.846982
0.736713
0.749826
0.834465
0.643730
0.912547
0.710487
0.778437
0.751615
0.856519
0.843406
0.850558
0.907779
0.903606
0.870824
0.793934
0.979900
1.109838
0.994802
1.246929
1.051426
1.094937
1.263618
1.206994
1.293421
1.082420
1.179576
1.235604
1.316667
1.369715
1.310706
1.500845
1.698732
2.066493
1.987815
2.115965
2.346635
2.203584
2.124906
2.398491
2.260804
2.768636
3.523827
14.057755
53.014755
191.612840
371.629596
741.576552
1015.805006
1015.805006
1015.805006
1015.805006
1015.805006
1015.805006
1015.805006
918.956995
566.344857
244.099498
114.213824
35.938621
##ZVALUE=400
0.604987
0.553727
0.555515
0.526905
0.479817
0.620484
0.549555
0.597835
0.696778
0.575781
0.696778
0.502467
0.614524
0.609756
0.403523
0.619888
0.637770
0.666976
0.642538
0.645518
0.634789
0.756979
0.669956
0.627637
0.771880
0.562668
0.695586
0.618696
0.718832
0.550747
0.679493
0.637770
0.751615
0.677705
0.690818
0.730753
0.734925
0.640750
0.763535
0.761747
0.708699
0.776649
0.764728
0.783801
0.911951
0.807643
0.848770
0.862479
0.881553
0.885725
0.930429
0.879765
0.935793
1.002550
0.996590
1.071692
1.095533
0.972748
1.063943
1.147985
1.067519
1.123548
1.125932
1.251698
1.312494
1.323819
1.311898
1.629591
1.620650
1.681447
1.903772
1.927614
1.938939
2.006888
1.972914
2.033710
2.115965
2.160668
2.371669
2.650619
3.008842
7.509589
27.562976
105.810761
235.030651
552.952886
920.068026
1015.805602
1015.805602
1015.805602
1015.805602
1015.805602
1015.805602
1015.805602
750.001669
363.452435
##END
