##TITLE=
##FORMAT=SPECTACLE-ASCII V-1.2
##DATA TYPE=ULTRAVIOLET SPECTRUM
##SECOND TYPE=ULTRAVIOLET SPECTRUM
##DATE=09/27/17
##TIME=10:34:55
##SPECTROMETER/DATA SYSTEM=SPECTACLE
##XUNITS=NM EM
##YUNITS=ENERGY
##YFACTOR=1
##FIRSTX=220
##LASTX=410
##NPOINTS=96
##3DDATA=Equidistant
##ZUNITS=NM EX
##FIRSTZ=210
##LASTZ=400
##ZPOINTS=39
##XYDATA=(Y..Y)
##ZVALUE=210
15.582442
15.631914
15.237927
12.724996
11.316538
10.482669
9.766817
10.720491
8.226633
6.523728
6.127954
5.057454
4.363656
3.796816
4.057884
4.331470
4.239678
4.956722
4.517436
4.702806
5.115867
4.786849
5.606413
5.310774
6.373525
7.559657
7.372499
8.599758
9.778738
10.691881
11.859536
11.438727
12.540817
13.701916
13.547540
14.998913
14.484525
15.247464
15.116930
15.633702
15.619993
14.303923
15.184879
13.653636
15.946627
14.334917
14.598966
14.675856
14.099479
13.816953
14.437437
13.615489
15.330911
15.110970
14.642477
13.832450
14.454722
14.357567
15.420914
15.552640
14.336705
15.569925
14.136434
14.255643
15.169978
13.827682
16.017556
15.711784
15.877485
15.986562
18.372536
18.651485
19.164681
19.348860
20.586848
19.575953
20.605922
19.394755
19.820929
19.624829
17.384887
16.714931
17.212629
14.374852
12.655854
12.370944
10.838509
10.616779
9.954572
11.603832
12.664795
15.886426
18.114448
20.537972
25.839806
28.587580
##ZVALUE=215
37.978888
37.425756
33.663511
25.495887
21.214485
19.655824
16.730428
16.250610
16.059875
14.899969
12.165904
11.210442
8.309484
7.165670
5.405545
5.367994
4.150867
4.316568
4.723668
4.720688
5.042553
5.190969
5.202889
5.923510
7.443428
7.979870
8.419752
10.570884
12.013912
13.343692
13.929605
17.337799
16.816854
18.036962
17.655492
19.171834
17.842650
18.664598
18.660426
18.501878
18.037558
18.620491
17.363429
17.223954
17.371774
16.300678
16.784668
16.866922
16.323924
17.995834
16.905665
17.478466
16.789436
16.018748
16.781688
17.189980
16.381741
18.601418
16.558766
17.406940
17.516613
17.412901
18.680692
17.670989
17.419457
18.034577
18.611550
17.498732
18.128753
17.863512
19.171834
19.972920
18.965602
20.519495
21.126866
21.972656
21.099448
20.666718
20.731688
19.239783
17.745495
17.089844
15.464425
15.270710
14.204979
13.645887
11.353493
10.779500
11.148453
10.700822
10.497570
10.173917
11.196733
10.832548
10.980964
14.130473
##ZVALUE=220
73.885918
76.576471
71.536899
70.622563
58.238506
48.286915
36.302805
28.792620
26.832819
25.918484
26.425719
25.824904
23.168921
17.658472
16.533732
11.693835
8.677840
6.713867
5.958676
5.313754
4.884601
4.581809
5.562901
6.314516
7.058978
8.127689
10.179877
10.639429
13.271570
13.369918
15.483499
17.491579
18.875599
19.520521
20.517707
23.374557
21.744967
21.218657
21.822453
22.659898
22.560954
23.786426
22.879839
21.978617
21.623969
21.082759
20.703673
22.046566
20.953417
21.218657
19.424558
21.532774
21.111965
20.347834
20.897985
22.256970
21.583438
22.294521
21.786690
21.332502
21.735430
21.433830
22.629499
23.015738
22.082925
21.656752
22.931695
23.872852
25.383830
24.187565
23.452640
24.808645
23.705959
25.384426
24.178624
24.173856
22.228956
25.287867
21.187663
22.957921
20.031929
20.011663
19.247532
17.643571
15.186667
15.029907
14.739633
13.993979
13.418794
11.204481
11.363626
12.992620
12.281537
11.524558
11.191964
11.177659
##ZVALUE=225
95.586777
100.685954
120.174885
135.141611
132.712722
122.515559
106.448531
80.684423
63.641667
53.512454
42.205453
38.765669
39.404631
41.594505
40.405989
34.226775
27.184486
21.301508
16.635656
10.902882
8.356571
6.523728
6.513596
6.793737
6.350875
7.515550
9.278655
9.607673
10.963678
13.523698
13.826489
14.694929
15.944839
19.462705
20.051599
20.724535
22.227764
23.835897
23.898482
23.741722
24.686456
24.766922
25.671721
24.991632
25.983453
24.439692
25.248528
24.138689
24.155974
25.633574
24.985671
25.398731
25.190711
26.036501
25.185943
26.706457
25.642514
26.819706
28.926730
29.835701
27.768612
28.929710
28.946996
29.002428
28.348565
31.049848
29.056668
30.280948
28.939843
28.248429
28.429627
29.357672
28.255582
27.951598
28.174520
28.631687
27.038455
27.762651
26.931763
26.369691
25.607944
22.372603
22.609830
21.381974
19.098520
18.367767
18.054843
17.517805
16.226768
15.739799
15.372634
14.787912
15.375614
13.388991
14.120936
13.585687
##ZVALUE=230
64.104795
72.145462
106.840730
152.540803
194.734931
221.521854
232.925415
218.111873
193.718672
158.294439
106.462836
77.301860
58.742762
60.561895
57.265759
58.305860
61.944723
61.244965
52.598715
39.306879
31.494498
21.141768
14.004707
10.375977
7.983446
6.297827
7.185936
7.867813
10.321736
9.434819
10.343790
11.779666
13.254881
14.412999
16.296506
18.071532
19.605756
19.368529
21.070838
22.973418
22.081733
24.043918
24.504662
25.614500
25.707483
25.398731
25.285482
26.665926
26.901960
26.515722
28.400421
28.001666
29.480457
29.979944
29.771924
30.129552
32.558441
32.280684
32.234788
34.567714
34.503937
31.954646
34.380555
34.377575
32.987595
34.150481
35.824776
35.647750
36.728978
34.102798
35.887957
36.357641
35.943985
37.174821
34.718513
35.211444
33.405423
31.919479
31.282902
31.700730
29.840469
27.619600
27.860999
26.741624
23.917556
22.255778
21.603703
22.022724
21.312833
18.748641
19.231439
18.520951
18.979907
17.079711
16.341805
15.943646
##ZVALUE=235
17.664433
23.040771
42.358637
94.399452
141.563416
212.386847
278.766751
336.413980
352.468491
354.792476
306.878686
250.633955
170.612931
134.704709
93.856454
80.690980
82.897544
86.482763
94.521642
90.563893
83.665848
69.079995
56.268573
37.291646
28.527975
17.215610
11.889935
9.995699
9.588599
8.618832
8.890629
10.314584
9.854436
11.660457
14.086962
13.182759
15.061498
16.692877
16.986728
18.573999
19.057989
21.959543
21.404624
23.881793
24.178624
24.281740
25.669932
26.701689
28.622746
28.866529
30.580759
32.094717
32.608509
33.689737
33.814907
35.124421
37.298799
39.215684
40.547848
40.734410
41.584969
43.050647
43.099523
42.179823
41.254759
43.446422
42.218566
42.337775
43.453574
43.752789
41.866899
42.575598
41.249990
43.196678
42.080879
40.456653
41.951537
40.394664
40.335655
39.827824
36.464930
32.845736
34.188628
30.666590
29.745698
30.602813
27.536750
26.128888
27.344823
24.474859
24.323463
22.637844
23.052692
22.278428
22.794604
21.933913
##ZVALUE=240
3.842711
4.106760
7.336736
21.684766
42.708516
91.280937
152.467489
257.302523
343.815684
416.784883
486.652851
484.721661
429.948568
368.483663
268.458724
195.753574
127.583742
105.468631
94.904900
101.794600
112.370849
114.616752
110.562444
98.966956
84.429979
63.471794
45.116544
31.007528
21.948814
13.639927
11.818409
10.204911
10.254979
10.093451
10.552406
12.339950
12.773871
14.731884
15.062690
16.791821
18.788576
18.365979
20.291805
20.767450
23.197532
26.301742
26.760697
30.448437
31.544566
32.650828
34.117699
37.787557
37.989616
38.131475
38.992763
42.749643
41.015744
42.932630
46.115518
47.442913
47.447681
48.345923
47.729611
45.964718
46.101809
50.296783
51.539540
48.780441
47.838688
49.535632
46.635866
47.127604
47.094822
47.604442
46.584606
45.409799
45.290589
45.091510
42.100549
41.870475
39.712787
38.333535
37.745833
35.720468
34.462810
32.345653
31.320453
30.770898
29.372573
28.115511
28.159618
26.727915
26.050806
25.737882
23.962855
24.649501
##ZVALUE=245
3.270507
3.827810
3.317595
3.874898
6.005764
12.134910
35.437942
72.021484
157.344937
243.852735
384.531617
476.382971
534.753799
581.253767
548.260808
464.790463
379.147530
257.256627
184.766650
120.007992
96.668601
96.758604
111.637712
120.348930
123.118758
123.694539
106.297731
92.453957
66.755414
53.087473
38.602948
23.779869
17.531514
12.993813
10.850430
11.704564
12.959838
14.218688
15.063882
15.954971
17.116666
19.101501
21.378994
24.737716
24.253726
27.628541
29.624701
31.598806
32.758713
35.606623
39.596558
39.044619
39.922595
43.383837
43.208599
46.396852
45.697689
46.089888
46.560764
47.549605
47.999620
48.510432
47.942996
49.351454
46.644807
47.192574
47.673583
46.912432
46.532750
45.641661
45.452714
43.545961
46.722889
44.547915
44.336915
42.631626
41.521788
38.914680
38.310885
37.148595
35.694838
34.794807
33.133626
31.835437
32.917857
30.656457
27.906895
27.719736
27.363896
25.640726
24.664998
22.048950
23.224950
22.892952
21.888614
22.980571
##ZVALUE=250
3.002882
3.274679
2.975464
2.978444
3.024936
3.093481
3.457665
8.713603
24.293661
49.307942
125.910640
215.631723
362.312794
463.921428
587.446690
637.470484
647.873878
584.117770
466.101766
353.526473
240.035653
147.160888
105.995536
90.707541
101.977587
120.636821
132.211447
137.812495
131.715536
114.473701
100.951791
72.896481
55.903792
36.990643
27.731657
17.381907
15.907884
14.798641
15.530586
16.851425
18.407702
20.733476
22.737980
25.044680
25.550723
27.518868
30.331612
33.271909
34.123659
35.988688
39.421916
39.564967
41.184425
41.327477
43.712854
43.642521
43.336749
45.332909
43.523908
43.653846
45.279860
46.164989
42.608976
42.496920
41.615963
42.178631
42.066574
40.579438
40.686727
39.343834
39.447546
37.180781
37.105680
35.400987
35.019517
35.271645
33.066869
33.046603
32.779574
30.662417
32.068491
30.665994
26.871562
26.453733
26.822686
25.644898
25.218725
22.492409
23.375750
22.603869
22.430420
21.181703
20.576715
19.173622
20.260811
18.356442
##ZVALUE=255
2.503991
2.575517
2.510548
2.535582
2.733469
2.859831
2.913475
2.649426
3.190637
5.235672
19.261837
44.503808
89.608431
190.916657
297.349691
460.944772
576.639771
690.208673
728.691816
689.525008
601.609945
482.665896
303.225517
194.920897
113.293529
88.035464
86.022615
102.298856
125.443935
139.370561
143.483877
141.850710
128.040910
104.620457
86.972713
59.162974
45.037866
31.187534
25.051832
21.357536
20.544529
21.509528
22.623539
25.015473
26.796460
29.427409
29.927492
32.598972
33.373833
35.607815
37.975907
38.843751
37.868619
39.183497
39.075613
41.127801
40.655732
40.852427
39.768815
41.521788
40.857792
40.407777
40.634871
38.221478
39.113760
37.619472
37.066936
37.102699
37.309527
35.425425
35.636425
33.994913
33.834577
32.818913
30.838847
30.657649
30.587912
28.891563
28.475523
27.870536
26.586652
25.156736
24.198890
23.364425
22.771955
22.665858
20.325780
21.784902
21.424890
19.823909
19.422770
18.008947
18.143654
17.538667
16.617775
17.125607
##ZVALUE=260
2.514720
2.461672
2.459884
2.368689
2.372861
2.576709
2.518892
2.728701
2.620816
2.912879
2.782941
3.760457
7.543564
28.668642
61.872005
152.081847
252.522826
416.124463
549.829006
721.882582
798.982978
814.207792
722.386837
597.577691
401.750803
275.598764
158.899426
104.995966
78.771710
84.422827
102.221966
128.912926
142.362714
155.660510
150.601864
132.799745
116.627812
88.672638
69.514513
50.358772
38.501620
30.435920
27.927756
26.765466
27.394891
29.541850
29.689670
32.171607
33.422709
34.371614
34.204721
34.841895
35.704970
36.737919
37.505627
38.481951
37.013888
37.537813
38.466454
38.499832
38.248897
37.798882
36.441684
36.929846
36.739707
35.844445
35.289526
33.737421
35.335422
34.601688
34.195781
34.004450
32.251477
31.376481
30.381680
30.203462
28.750896
28.377771
27.946830
26.138425
25.756955
24.629831
23.719668
23.366809
21.451712
20.536780
21.036863
20.317435
19.637942
18.632412
18.891692
18.110871
17.626882
16.780496
16.244650
16.732812
##ZVALUE=265
2.062917
2.110600
2.124906
2.225637
2.331734
2.282858
2.467632
2.529621
2.544522
2.468824
2.758503
2.587438
2.838969
2.788901
4.968643
18.825531
46.540499
116.380453
204.953551
385.455489
545.996428
705.540776
851.203799
880.848765
816.323757
702.108741
520.415902
375.207663
215.646625
134.663582
88.154674
72.708726
84.892511
115.015507
134.858489
155.601501
163.859725
156.037807
141.507983
117.379427
97.953677
71.918964
57.374835
42.846799
36.533475
31.945705
31.089783
31.679869
31.660795
33.440590
34.189820
34.862757
35.968423
36.295652
35.774708
36.787987
36.162734
37.376881
37.057996
38.528442
36.218762
37.323833
36.414862
37.294626
35.201907
36.894679
34.919977
35.635829
35.725832
34.913421
34.015775
33.602715
33.025742
31.546950
31.876564
29.656887
29.126406
29.220581
28.386712
25.725961
25.362968
24.369955
23.560524
22.698641
21.981001
21.102428
20.434856
19.590855
19.014478
18.703938
18.195510
16.761422
17.054677
16.789436
15.125871
15.440583
##ZVALUE=270
2.163649
2.191663
1.957417
2.110600
2.162457
2.269745
2.146959
2.169609
2.364516
2.153516
2.512932
2.386570
2.424717
2.453923
2.596974
2.582669
3.158450
9.233952
25.684834
82.139969
163.602829
286.701918
506.906509
687.037706
876.855850
940.503478
927.843451
842.541456
657.633543
495.548844
338.956714
182.651877
110.760927
67.334771
69.825649
94.362497
114.339590
146.638751
162.710547
171.306729
168.042779
150.101781
131.101608
101.755857
80.874562
59.869885
49.101710
39.543509
35.540462
35.988688
35.439730
34.955740
36.411881
36.099553
36.942959
37.699938
37.261844
38.364530
37.885904
37.716627
38.829446
39.309859
38.728714
37.435889
37.507415
37.509799
37.093759
36.350489
35.543442
35.627484
34.543872
34.136772
32.978654
33.049583
32.603741
31.606555
30.926466
29.329658
28.362870
28.070807
26.945472
25.495887
25.097728
23.010969
22.491813
21.766424
21.739602
19.971728
19.843578
18.521547
18.234849
17.124414
16.936660
15.915632
15.887618
16.205907
##ZVALUE=275
2.131462
2.164841
1.933575
1.988411
1.953840
1.753569
1.897812
1.916885
1.939535
2.265573
2.147555
2.200603
2.122521
2.269745
2.245903
2.385974
2.534986
2.705455
2.961755
4.952550
16.071796
44.602752
126.530528
240.935683
449.684858
614.517927
813.176036
936.849713
989.066958
940.344930
834.112763
620.168447
441.875458
241.803527
145.920515
76.137781
62.758923
73.139668
94.422698
124.980807
147.011876
163.449645
173.476934
166.589618
154.059529
124.967694
104.895830
81.731677
65.166950
50.668716
43.699741
38.777590
37.178993
37.041903
37.143826
37.500858
37.682652
38.787723
39.947629
39.291978
41.047931
39.664507
39.724708
38.916469
39.989948
38.945675
39.447546
38.398504
37.534833
37.510991
36.457777
36.583543
35.622716
34.987926
33.568740
32.701492
32.035708
31.503439
30.036569
28.837919
27.607679
25.589466
25.394559
24.150610
23.594499
22.845864
22.050738
20.510554
20.020604
19.113421
18.612742
17.496943
18.070936
16.385913
16.363859
15.793443
##ZVALUE=280
1.902580
1.751781
1.846552
1.999736
1.904964
1.809597
1.948476
1.870990
2.196431
2.080798
1.858473
2.186894
2.099872
2.001524
2.127886
2.339482
2.241731
2.273917
2.466440
2.822876
2.727509
3.036857
10.703802
32.317638
100.795627
186.265707
354.378819
522.023439
747.686028
904.925466
995.861888
1000.905633
907.197595
693.679452
517.601967
298.157930
182.562470
91.123581
60.822964
56.382418
69.422722
96.992850
120.450854
148.111582
158.596635
167.430639
163.163543
146.299601
128.655434
101.227760
83.040595
62.017441
51.483512
42.532682
38.699508
37.872791
37.044883
36.511421
37.677884
38.773417
40.146708
39.853454
40.054917
39.112568
39.527416
38.702488
38.380623
39.258599
37.825704
37.398934
37.310719
36.055446
35.181642
33.979416
33.699870
32.460690
30.992627
30.858517
30.074716
28.961897
28.066635
26.603937
25.195479
24.974942
23.684502
22.983551
22.617579
20.554662
19.561648
19.013882
18.782616
18.157959
17.453432
16.505718
16.227961
15.358925
##ZVALUE=285
1.838803
1.894832
1.887679
1.914501
1.749992
1.744628
1.844764
1.857877
1.869798
1.716614
1.896620
1.825690
1.917481
1.988411
2.113581
1.979470
2.030730
2.226830
1.956820
2.259612
2.222657
2.463460
2.623796
2.615452
5.701780
17.095804
56.839585
116.912723
254.792571
410.003662
583.570004
824.178457
958.815813
1015.805602
981.867909
805.526972
632.516742
402.462482
252.941847
127.243996
72.021484
43.370724
45.557618
64.934492
84.533691
114.341974
132.873654
153.592825
160.553455
158.712864
146.605968
122.692585
104.946494
78.811646
64.648986
49.409866
42.689443
37.831664
36.248565
36.901832
36.530495
37.798882
37.833452
37.489533
37.067533
37.209988
37.486553
37.841797
36.952496
36.747456
36.075711
35.594702
34.345984
33.131838
33.689737
32.066703
31.438470
29.753447
28.771758
27.910471
27.329922
25.803447
25.177598
23.903847
23.701787
23.167729
21.950603
21.027923
19.663572
19.443631
18.610954
16.507506
17.302632
16.591549
15.876889
15.542507
##ZVALUE=290
1.515746
1.867414
1.642704
1.708865
1.764894
1.791716
1.691580
1.749992
1.775622
1.757741
1.806617
1.959801
1.740456
1.846552
1.872778
1.588464
1.856685
1.967549
2.210736
2.159476
2.250671
2.062917
2.184510
2.416968
2.514720
2.568960
3.108978
8.872747
26.151538
80.103874
159.272552
335.980654
509.314537
760.394931
924.347639
1015.805006
1015.805006
899.639726
739.181638
499.118567
330.140591
166.785717
90.581775
41.922927
31.769872
40.359497
55.356622
79.981685
100.797415
127.768517
143.857598
154.491663
152.626634
140.964985
122.517943
98.611712
80.253482
61.472654
49.602985
41.967630
36.835670
35.791993
34.940839
34.789443
34.067631
34.210682
33.487678
33.739805
32.892823
32.664537
32.500625
32.033920
31.654835
30.790567
29.676557
29.362440
28.622746
27.296543
26.602745
26.175976
24.337769
24.553537
23.122430
22.338629
21.548867
20.474792
19.724965
19.939542
19.116998
17.827749
17.633438
16.839504
16.102791
15.303493
15.248656
14.810562
##ZVALUE=295
1.567602
1.555681
1.676679
1.467466
1.703501
1.545548
1.705885
1.614690
1.636744
1.508594
1.654625
1.675487
1.701713
1.772642
1.838803
1.823902
1.783967
1.699924
1.802444
1.763701
1.815557
1.966953
2.069473
1.984835
2.321601
2.210736
2.298951
2.434850
2.677441
3.813505
11.479855
45.394897
102.487803
245.939493
406.598449
663.647652
838.630795
1007.968783
1015.805006
979.856849
844.427943
602.613688
420.132875
227.712989
124.735832
49.920678
28.903484
25.687814
34.533739
54.582953
72.378516
100.405812
119.242668
138.312578
147.421956
145.019889
136.452913
117.139816
99.419951
76.615810
61.102509
47.408938
39.157867
33.257604
31.140447
29.784441
29.692650
29.829741
29.368997
28.643608
27.835965
27.724504
27.806759
26.833415
25.707483
25.409460
24.538636
24.306774
23.597479
22.297502
21.311641
20.480752
20.677447
19.579530
19.186735
18.693805
17.879605
17.568469
17.556548
16.817451
15.944839
15.250444
14.877915
14.418960
14.156699
14.061928
##ZVALUE=300
1.480579
1.588464
1.494884
1.575947
1.500845
1.449585
1.494884
1.691580
1.466870
1.506805
1.443624
1.576543
1.563430
1.598597
1.630783
1.730919
1.838803
1.742840
1.698732
1.877546
1.924634
1.807809
1.849532
1.951456
1.873970
1.999736
2.184510
2.179742
2.342463
2.199411
2.623796
2.746582
7.559657
23.838878
80.273747
160.092711
333.611965
512.006879
764.650702
917.396545
1015.805602
1015.805602
901.453495
743.799806
496.111512
325.057507
162.435770
88.236928
37.802458
23.642778
26.112795
34.123659
52.903891
69.122910
93.111992
113.425851
134.909749
141.674876
143.116713
133.860707
114.044547
98.887682
74.618459
60.227513
43.906569
35.829544
30.508637
27.472973
26.247501
25.599599
24.781823
24.348497
23.596883
23.051500
22.385716
21.892786
21.336675
20.761490
20.924807
19.672513
19.308925
19.182563
18.126965
17.656684
17.226934
17.275810
16.424656
16.172528
15.542507
15.076995
14.618635
14.382601
13.695955
13.313890
13.132691
13.119578
##ZVALUE=305
1.505613
1.402497
1.526475
1.457930
1.388788
1.427531
1.578927
1.505613
1.428723
1.504421
1.587868
1.611710
1.420975
1.381636
1.457930
1.531839
1.558661
1.550913
1.514554
1.725554
1.703501
1.785755
1.757741
1.635551
1.880527
2.049804
1.943707
1.846552
1.931787
2.072453
2.226830
2.289414
2.417564
2.649426
3.884435
15.948415
44.658780
131.359696
241.265893
454.888940
649.904013
891.730785
1011.157036
1015.805006
1001.432538
794.121623
610.446930
383.940935
240.778923
111.000538
58.456659
27.952790
22.270679
26.843548
34.920573
51.314831
68.107843
91.677904
110.995770
128.415823
135.996938
133.814812
125.631690
107.982755
90.785623
69.258809
54.522753
39.846897
32.282472
25.602579
23.291707
21.972656
21.534562
20.239949
19.760728
19.742846
19.045472
18.461943
18.188953
17.991662
17.718673
17.507672
16.703606
15.931726
15.589595
15.480518
15.703440
15.141964
14.806986
14.533997
13.904572
13.622642
13.318658
13.108850
12.497902
12.125969
##ZVALUE=310
1.438856
1.428723
1.335740
1.497865
1.488924
1.392961
1.381636
1.396537
1.389980
1.437664
1.467466
1.494884
1.532435
1.411438
1.549721
1.538992
1.457930
1.587868
1.659989
1.473427
1.701713
1.687407
1.691580
1.726747
1.752973
1.639724
1.669526
1.757741
1.631975
1.689792
1.976490
1.966953
2.142787
2.255440
2.222657
2.481937
2.771616
7.724762
22.870898
77.572465
153.533816
325.255990
501.260757
750.672817
919.019580
1015.805602
1015.805602
901.635885
742.877722
501.163602
333.942771
170.036554
95.693469
39.499998
23.595691
20.493865
24.898648
33.838749
44.878721
63.758492
80.098510
100.761652
115.204453
125.627518
126.071572
115.614533
103.849769
83.854795
67.176819
47.872663
36.794543
28.627515
23.014545
19.355416
18.024445
17.262697
16.671419
16.399622
16.348958
15.414953
15.109777
14.584661
15.071630
14.607906
14.771819
14.321804
14.024973
14.362931
13.460517
12.937784
12.859702
12.728572
12.097955
12.150407
11.998415
11.415482
##ZVALUE=315
1.316667
1.363754
1.274943
1.360774
1.462698
1.388788
1.369715
1.379848
1.440644
1.408458
1.320839
1.381636
1.426935
1.410842
1.243949
1.400709
1.473427
1.543760
1.544952
1.479983
1.591444
1.540780
1.524687
1.662970
1.711845
1.648664
1.497865
1.584888
1.532435
1.628995
1.726747
1.800656
2.019405
1.883507
1.846552
2.018809
2.119541
2.378821
2.466440
3.984571
12.260675
47.838688
109.636784
253.858566
411.305428
668.780804
844.599009
1006.786823
1015.807986
982.980728
847.686529
612.202883
432.148576
227.721930
127.659440
51.616430
27.202964
18.465519
19.085407
23.528934
29.442906
43.259859
54.999590
74.118972
91.677904
108.056664
115.124583
116.229653
109.152794
93.555450
79.530478
57.917833
43.820739
30.852556
24.002790
19.090772
16.474724
15.431643
14.420748
13.962984
14.142990
13.170838
13.676882
13.263822
13.040900
12.875795
12.677908
12.379885
12.249947
12.254715
11.909604
11.621714
11.560917
11.487603
11.219978
11.680722
##ZVALUE=320
1.422763
1.452565
1.419783
1.472831
1.416802
1.395941
1.433492
1.601577
1.458526
1.428723
1.504421
1.464486
1.532435
1.441836
1.497865
1.514554
1.491904
1.492500
1.573563
1.719594
1.597404
1.752973
1.571774
1.586676
1.736879
1.585484
1.652837
1.695752
1.666546
1.853704
1.750588
1.852512
1.842976
1.825690
1.940727
2.000928
1.972914
1.990795
2.261996
2.168417
2.351999
2.801418
6.122589
27.576685
69.314837
180.833936
305.205584
515.386462
699.716806
908.511877
1000.585556
1001.943946
910.512805
701.166987
513.660908
287.987590
165.855885
73.887706
36.915541
17.925501
14.778972
15.975833
17.810464
24.260879
32.481551
49.439669
62.778592
81.905723
94.646811
105.383992
106.548667
99.433661
89.324713
70.631504
55.848956
38.984418
29.752851
20.236969
16.557574
13.756752
12.833476
12.411475
11.999607
11.955500
11.899471
11.653900
11.640787
11.754632
11.032820
10.869503
11.211634
10.853410
10.947585
10.774732
10.574460
10.650754
##ZVALUE=325
1.165867
1.327991
1.383424
1.196861
1.283884
1.331568
1.471639
1.392961
1.295805
1.293421
1.547933
1.395941
1.300573
1.422763
1.396537
1.296997
1.405478
1.324415
1.364946
1.236796
1.344681
1.346469
1.576543
1.388788
1.388788
1.445413
1.620650
1.496673
1.467466
1.646876
1.543760
1.476407
1.600981
1.567602
1.633763
1.655817
1.772642
1.713634
1.797676
2.012849
1.997948
1.973510
2.175570
2.287626
3.726482
17.359853
46.349764
127.206445
227.433443
424.669981
601.689816
821.584463
945.814848
995.717645
935.407877
747.092962
566.071868
341.122746
211.346745
96.117854
47.345757
17.225742
11.227727
10.886788
11.395812
14.446974
19.674897
30.640960
42.294860
60.719848
74.263811
89.146495
96.257925
97.623467
91.410875
77.756643
65.445900
47.852993
36.124587
24.636984
18.497705
13.613701
12.194514
10.955930
10.859966
10.346770
10.310411
10.229945
10.128617
10.438561
9.985566
9.982586
9.899735
10.144711
9.880662
9.923577
##ZVALUE=330
1.227856
1.261830
1.241565
1.193881
1.226664
1.198649
1.072884
1.168847
1.231432
1.250505
1.350641
1.310706
1.252890
1.417994
1.275539
1.379848
1.205802
1.209974
1.248717
1.292825
1.260638
1.344681
1.438856
1.445413
1.465678
1.492500
1.479983
1.408458
1.430511
1.503825
1.354814
1.402497
1.332760
1.561642
1.754761
1.558661
1.445413
1.558661
1.589656
1.626611
1.843572
1.892447
1.855493
2.043843
1.973510
2.152920
2.472997
8.556843
25.037527
80.661774
157.014728
317.651629
478.238463
710.446835
860.918760
968.902707
947.607756
806.939602
650.770664
420.058966
272.977948
128.321648
66.174865
24.740696
12.029409
8.510947
8.819699
9.470582
12.553930
19.128919
26.328564
39.594769
52.563548
70.573688
80.699921
89.913607
89.991689
84.210634
75.132847
57.415962
46.513677
31.657815
24.243593
17.664433
13.910532
11.059642
10.325909
9.554625
9.717941
9.463429
9.671450
9.706616
9.148717
9.280443
9.507537
9.432435
##ZVALUE=335
1.236796
1.202822
1.151562
1.143813
1.274943
1.261830
1.229644
1.148582
1.265407
1.266599
1.049638
1.179576
1.271963
1.137853
1.199841
1.270771
1.304746
1.261830
1.352429
1.350641
1.325607
1.356602
1.125932
1.342893
1.233816
1.333952
1.270771
1.520514
1.325607
1.255870
1.390576
1.460910
1.290441
1.385808
1.446605
1.606941
1.430511
1.550913
1.534820
1.497865
1.644492
1.653433
1.593828
1.856685
1.901984
1.850724
1.994967
2.236962
2.124906
4.326701
12.820959
49.002767
104.812980
235.908628
381.078720
615.635514
774.745941
915.938616
938.183665
846.601725
714.804530
492.128730
335.397720
175.496936
92.831850
32.967925
15.059710
8.501410
8.050799
8.245707
8.964539
11.885762
15.968680
25.720596
35.789609
52.078962
64.145923
76.552629
83.586574
84.698796
79.695582
67.945719
56.988597
42.704940
33.259988
23.358464
17.738938
13.101697
11.277795
9.502769
8.910894
8.892417
8.818507
8.604527
8.382797
8.520484
##ZVALUE=340
1.117587
1.243949
1.128912
1.064539
1.269579
1.201630
1.031756
1.082420
1.179576
1.225471
1.158714
1.240969
1.112819
1.196861
1.236796
1.203418
1.202822
1.040697
1.135468
1.305938
1.247525
1.363754
1.308918
1.168847
1.203418
1.245737
1.269579
1.373887
1.386404
1.323819
1.335740
1.251698
1.403689
1.270771
1.356602
1.529455
1.353621
1.478791
1.486540
1.499653
1.548529
1.458526
1.572967
1.490712
1.638532
1.809597
1.818538
1.800656
1.991987
2.140999
2.206564
2.980828
6.698966
29.386878
72.663426
180.781484
305.831432
512.547493
672.981739
842.424035
908.382535
867.609978
764.465928
569.444895
405.855775
218.725801
119.719505
45.860410
20.042658
9.375811
7.897615
7.481575
7.786751
8.515716
10.980964
16.552806
23.259521
35.179853
46.265721
61.515570
71.196556
78.693628
79.116821
72.725415
66.555738
53.570867
43.617487
30.997992
23.726821
16.880631
12.691617
9.977818
9.010434
8.451939
8.250475
7.904768
##ZVALUE=345
1.029968
1.176596
1.184940
1.172423
1.134872
1.007915
1.209974
1.092553
1.118779
1.056790
1.159906
1.167655
1.179576
1.161695
1.106858
1.173615
1.220703
0.932813
1.214743
1.199841
1.193881
1.222491
1.202822
1.341701
1.277924
1.413822
1.174808
1.202822
1.325607
1.285672
1.282692
1.264811
1.428723
1.532435
1.386404
1.430511
1.399517
1.480579
1.397729
1.332760
1.375675
1.440644
1.416802
1.323819
1.506805
1.452565
1.502633
1.719594
1.641512
1.749992
1.757741
2.150536
1.936555
2.064705
3.515482
16.556978
44.546723
120.878816
218.354464
402.337909
559.239984
756.326914
852.918625
877.841711
808.087587
627.756715
471.184850
281.576514
159.676671
64.207911
29.402971
11.316538
7.623434
6.884933
6.999969
7.203817
7.718801
9.968877
13.689995
22.233725
31.124949
44.876933
54.317713
64.459443
70.392489
73.437691
69.720745
62.144995
53.340793
41.244626
32.081604
22.062659
16.475916
11.757612
9.552836
8.422732
##ZVALUE=350
1.173615
0.986457
1.047850
1.141429
1.099706
1.106858
1.053810
1.133680
1.140833
1.171827
1.069903
1.254678
1.159906
1.188517
1.136661
1.168847
1.009703
1.260638
1.110435
1.145601
1.118779
1.037717
1.209974
1.155734
1.269579
1.191497
1.197457
1.297593
1.181960
1.271963
1.244545
1.460910
1.207590
1.066923
1.208782
1.254678
1.210570
1.312494
1.334548
1.344681
1.310706
1.404881
1.324415
1.535416
1.480579
1.369715
1.440644
1.395941
1.438856
1.499653
1.571774
1.865625
1.721978
1.671910
1.811981
2.030730
2.404451
8.819699
26.498437
81.655979
155.511498
312.838554
461.175442
654.910803
777.557492
856.171846
828.066468
693.176985
536.948442
324.393511
199.327469
92.364550
42.608976
13.622642
7.787943
6.558895
6.427765
6.380677
6.223917
7.116795
9.042621
13.971925
19.093752
27.820468
36.651492
48.583746
56.611896
64.574480
66.559911
64.116716
59.124827
48.621893
39.632916
28.565526
22.077560
15.654564
##ZVALUE=355
1.066923
1.170635
1.290441
1.092553
0.983477
1.130700
1.140833
1.083612
1.108646
1.031756
1.113415
1.118779
1.058578
1.112819
1.257658
1.164675
1.294613
1.056790
1.173615
1.090765
1.180768
1.065731
1.043677
1.110435
1.149774
1.384616
1.281500
1.208782
1.201630
1.310706
1.243949
1.161695
1.232624
1.305938
1.201630
1.127720
1.177788
1.329780
1.269579
1.280904
1.192689
1.256466
1.386404
1.330972
1.373887
1.270771
1.325607
1.473427
1.492500
1.570582
1.561642
1.661777
1.575947
1.729727
1.536608
1.688600
1.809597
1.979470
2.052784
4.407763
13.726950
52.694678
107.157826
227.845907
365.650654
571.839809
704.538822
815.553665
822.776556
713.537931
577.300787
374.240875
234.636664
103.624463
51.903725
18.933415
9.070635
6.286502
6.263852
5.834699
6.026626
6.241798
6.590486
8.544922
10.898709
16.675591
23.184419
33.080578
41.077733
51.380992
57.186484
59.830546
59.193969
52.958727
46.199560
36.948919
##ZVALUE=360
1.090765
1.099706
1.098514
1.079440
1.074672
1.140833
1.211762
1.111627
1.216531
1.277924
1.124740
1.018643
1.167655
1.104474
0.956655
1.200438
1.046658
1.153946
1.044869
1.126528
1.257658
1.215935
1.137853
1.268983
0.990629
1.063943
1.055598
1.124740
1.183748
1.149774
0.919700
1.243949
1.157522
1.276731
1.390576
1.295805
1.230836
1.351833
1.090765
1.252890
1.135468
1.279712
1.200438
1.259446
1.229644
1.237988
1.317859
1.445413
1.539588
1.502633
1.550913
1.548529
1.528859
1.796484
1.593828
1.727939
1.619458
1.730919
1.760721
1.859665
2.028942
2.658963
6.493926
27.293563
65.495968
163.364410
273.616910
453.066826
603.841543
754.667521
797.503591
753.074884
644.353032
446.241498
300.687551
146.846771
77.339411
29.049516
12.782812
6.610751
5.928874
5.767941
5.737543
5.489588
5.801916
6.054640
7.034540
9.786487
12.926459
19.249916
26.406646
36.911964
43.765903
50.968528
54.504871
54.697990
##ZVALUE=365
1.052618
1.099706
1.144409
1.080632
1.167655
1.086593
1.043677
1.087785
1.082420
1.033545
1.108646
1.108646
1.138449
1.066923
1.229644
1.162887
0.965595
1.167655
1.250505
1.043677
1.088977
1.030564
1.258850
1.088977
1.055598
1.280904
1.345873
1.060963
1.292825
0.966787
1.206994
1.258850
1.169443
1.217723
1.157522
1.213551
1.233816
1.165867
1.139641
1.272559
1.343489
1.132488
1.258850
1.238585
1.310706
1.364946
1.360774
1.334548
1.362562
1.446605
1.356602
1.352429
1.364946
1.457930
1.493692
1.602769
1.719594
1.584888
1.617670
1.722574
1.925826
1.790524
1.999736
2.197623
3.853440
11.771917
43.704510
96.197724
222.416520
357.497931
549.601912
666.761994
763.100982
766.856670
663.287640
538.445711
352.966785
217.421651
96.736550
45.733452
14.907718
7.649660
5.727410
5.469918
5.584955
5.392432
5.101562
5.172491
5.452633
6.040931
8.244514
11.090636
16.583800
22.736788
31.347871
37.774444
##ZVALUE=370
1.017451
1.091957
0.998974
0.911951
0.970960
0.956655
0.954866
1.101494
0.864863
1.099706
1.090765
1.007915
1.008511
1.176596
1.215935
1.147985
1.105666
1.181960
1.113415
1.107454
1.173615
0.966787
1.034737
1.082420
1.167655
1.083612
1.247525
1.135468
1.223683
1.166463
1.058578
1.137853
1.120567
1.274943
1.197457
1.236796
1.296997
1.264811
1.261830
1.248717
1.341701
1.048446
1.320839
1.214743
1.200438
1.241565
1.294613
1.322627
1.205802
1.347661
1.404881
1.482964
1.309514
1.328588
1.351833
1.405478
1.430511
1.430511
1.421571
1.697540
1.484752
1.695752
1.586676
1.852512
1.864433
1.995564
2.370477
8.066893
25.011897
77.198744
149.313807
291.792750
432.426929
620.148778
721.173882
760.282874
708.070993
564.011931
424.894691
242.039561
138.371587
55.015683
25.398731
9.182692
5.874634
5.175471
5.125999
4.884601
4.591942
4.769564
4.565716
4.949570
5.559921
7.226467
9.740591
14.012456
##ZVALUE=375
1.120567
1.128912
0.962615
1.044869
1.240969
1.065731
0.965595
0.952482
1.013875
1.062751
1.070499
1.086593
1.024604
1.025796
1.060963
1.101494
1.011491
1.133680
1.092553
1.073480
1.074672
1.041889
1.125932
1.102686
1.142621
1.089573
1.060963
1.137853
0.940561
1.121759
1.101494
1.258850
1.189709
1.330972
1.235604
1.133680
1.224875
1.285672
1.188517
1.232624
1.122952
1.354814
1.283884
1.251698
1.148582
1.294613
1.181960
1.304746
1.214743
1.211762
1.254678
1.237988
1.145601
1.231432
1.382828
1.298785
1.385808
1.350641
1.324415
1.355410
1.405478
1.367927
1.494884
1.529455
1.370907
1.588464
1.653433
1.722574
1.956820
3.992915
17.713904
43.860674
113.584995
206.058025
374.643803
513.931513
670.380592
743.876696
729.783773
640.901923
459.916592
325.819850
182.437897
102.119446
40.374994
17.624497
6.813407
5.144477
4.611611
4.794598
4.396439
4.583597
4.274845
4.464984
4.546642
5.126595
##ZVALUE=380
1.005530
1.015663
0.852942
0.801682
1.001954
1.019835
0.945926
0.945926
1.039505
1.005530
0.977516
1.032948
0.956655
0.987649
1.102686
1.073480
1.038909
0.945926
0.927448
0.972748
1.018643
1.179576
1.181960
1.128912
1.083612
1.212955
1.162887
1.122952
1.165867
1.188517
1.234412
1.250505
1.138449
1.216531
1.324415
1.272559
1.232624
1.160502
1.317859
1.150966
1.142621
1.134872
1.208782
1.216531
1.128912
1.363754
1.351833
1.169443
1.252890
1.296997
1.351833
1.212955
1.234412
1.248717
1.246929
1.380444
1.287460
1.338720
1.423955
1.407862
1.270771
1.384616
1.408458
1.464486
1.404881
1.602769
1.517534
1.721978
1.694560
1.827478
1.944900
2.643466
7.635951
33.421516
77.133775
180.981755
294.633508
468.899608
599.700809
723.817945
741.927028
657.615662
542.985797
368.141532
246.484876
122.166872
63.611865
22.729635
10.190606
5.309582
4.638433
4.401803
4.461408
4.263520
4.141927
4.069805
##ZVALUE=385
0.866652
1.005530
0.981688
1.024604
0.829697
1.089573
1.013875
1.070499
0.995994
0.887513
0.986457
1.011491
1.072884
1.055598
0.984669
0.906587
0.924468
1.067519
1.049638
0.974536
1.094937
1.164675
1.137853
1.110435
0.998974
1.171827
1.126528
1.097918
1.130700
1.268983
1.191497
1.147985
1.342893
1.281500
1.421571
1.389980
1.414418
1.392961
1.388788
1.466870
1.344681
1.404881
1.394749
1.293421
1.319647
1.299977
1.279712
1.355410
1.349449
1.333952
1.300573
1.328588
1.335740
1.298785
1.300573
1.278520
1.257658
1.309514
1.325607
1.459718
1.359582
1.325607
1.503825
1.524687
1.405478
1.410842
1.373887
1.437664
1.582503
1.710653
1.686811
2.000928
1.989603
2.076626
4.258752
18.565655
47.600865
123.386979
220.627785
397.199988
538.066626
680.145621
730.443001
705.247521
622.921586
459.361672
326.763988
178.998709
101.548433
41.415691
16.994476
6.024837
4.595518
4.346967
4.242659
4.071593
##ZVALUE=390
0.975728
1.085997
0.986457
1.004934
0.895858
0.979900
0.860691
0.978708
1.212955
0.898838
0.824928
0.831485
1.022816
0.838637
1.104474
1.091957
1.030564
0.940561
0.929832
1.030564
0.884533
1.033545
0.991821
1.141429
1.176000
1.169443
1.239777
1.213551
1.239777
1.393557
1.361966
1.413822
1.556873
1.580715
1.570582
1.543760
1.649857
1.668930
1.631975
1.518726
1.594424
1.662970
1.619458
1.604557
1.532435
1.475811
1.439452
1.523495
1.596808
1.406670
1.473427
1.342893
1.357794
1.345873
1.202822
1.389980
1.387596
1.376867
1.223683
1.411438
1.530647
1.347661
1.243949
1.437664
1.277924
1.510978
1.377463
1.643896
1.567602
1.779795
1.589656
1.758933
1.854897
1.763701
1.795888
1.867414
2.576709
10.077953
30.696988
93.405843
177.609921
337.539911
464.608669
610.776544
696.145892
726.940036
677.466989
538.626909
412.509441
250.215530
145.530701
59.875846
28.006434
9.541512
5.351901
4.357696
##ZVALUE=395
0.971556
1.011491
1.031756
0.974536
1.027584
1.019835
1.168847
1.062751
1.022816
1.093745
1.018643
0.923872
0.875592
1.025796
0.975728
0.986457
1.130700
1.120567
1.015663
1.048446
0.879765
1.018643
1.070499
1.077652
1.027584
1.180768
1.042485
1.192689
1.271963
1.256466
1.457930
1.463890
1.475811
1.563430
1.613498
1.511574
1.729727
1.593828
1.678467
1.556873
1.401901
1.653433
1.437664
1.594424
1.630783
1.622438
1.405478
1.475811
1.414418
1.454949
1.394749
1.427531
1.319647
1.532435
1.400709
1.470447
1.448989
1.462698
1.532435
1.278520
1.395941
1.381636
1.399517
1.360774
1.487732
1.478791
1.511574
1.491904
1.499653
1.549721
1.665950
1.753569
1.586676
1.771450
1.726747
1.817942
1.759529
1.861453
2.074838
5.881786
20.064712
67.342520
127.737522
246.750712
369.538665
544.868708
655.164719
733.562708
723.519921
619.239807
488.151908
302.379727
188.633800
82.467794
39.636493
13.919473
##ZVALUE=400
1.146793
1.056790
1.100898
0.962615
0.991821
1.058578
1.014471
0.871420
0.984669
1.012683
0.986457
1.107454
0.947714
1.099706
1.085997
1.010895
1.012683
1.127720
1.141429
0.896454
1.061559
1.019835
1.067519
0.912547
1.193881
1.256466
1.140833
1.273751
1.213551
1.337528
1.395941
1.369715
1.398921
1.461506
1.537800
1.537800
1.551509
1.599789
1.580715
1.621842
1.680851
1.569986
1.475811
1.704693
1.622438
1.440644
1.538992
1.458526
1.578927
1.535416
1.456738
1.551509
1.440644
1.389980
1.324415
1.524687
1.627803
1.439452
1.603961
1.605749
1.606941
1.353621
1.385808
1.520514
1.464486
1.536608
1.422763
1.521707
1.618862
1.620650
1.712441
1.807809
1.505613
1.522899
1.625419
1.623631
1.588464
1.695752
1.811981
1.743436
1.951456
3.103614
12.104511
33.013821
93.377829
169.969797
318.302512
449.467897
610.528588
690.781474
710.697770
654.134750
509.002805
376.693606
216.585994
130.344629
##END
