##TITLE=FQP00601
##FORMAT=SPECTACLE-ASCII V-1.2
##DATA TYPE=ULTRAVIOLET SPECTRUM
##SECOND TYPE=ULTRAVIOLET SPECTRUM
##DATE=03/05/18
##TIME=12:59:41
##SPECTROMETER/DATA SYSTEM=SPECTACLE
##XUNITS=NM EM
##YUNITS=ENERGY
##YFACTOR=1
##FIRSTX=220
##LASTX=410
##NPOINTS=96
##3DDATA=Equidistant
##ZUNITS=NM EX
##FIRSTZ=210
##LASTZ=400
##ZPOINTS=39
##XYDATA=(Y..Y)
##ZVALUE=210
2.339482
2.147555
2.375841
2.921820
3.085732
2.793670
2.937913
2.690554
3.011823
2.636909
2.678633
2.718568
2.594590
2.711415
3.322959
3.897548
3.464818
3.324747
3.846884
3.799796
4.355907
4.390478
4.517436
4.824996
5.710721
4.465580
5.699992
5.114675
5.796552
5.917549
5.330443
5.164742
5.909801
6.549954
6.558895
6.204844
6.511807
6.191730
7.639527
5.904436
8.116961
6.530881
7.420778
7.563829
6.673932
6.687641
7.022619
7.358789
7.277727
6.772876
7.196665
6.844997
6.780624
7.213950
7.741451
7.406473
6.848574
7.637739
7.536411
7.213950
7.343888
7.394552
7.074475
7.856488
7.498860
8.087754
8.360744
8.884668
9.587407
11.721849
13.607740
15.480518
19.081831
20.595789
23.920536
26.385784
26.690960
27.140975
27.591586
26.203990
22.943616
20.304918
17.394423
15.058517
11.075735
11.033416
8.148551
7.967949
7.885695
5.719662
6.706715
7.851720
7.602572
8.118749
6.935596
7.089972
##ZVALUE=215
8.423924
7.751584
7.221699
5.920529
5.663633
5.067587
5.412698
6.132722
6.172657
5.594492
6.077886
5.479455
4.934669
3.974438
3.676414
3.500581
3.143549
3.345609
4.188418
4.050732
4.007816
3.952980
4.442930
4.600883
4.941821
4.782677
5.442500
6.107688
6.726980
6.884933
6.931424
7.056594
7.967949
7.963777
7.687807
8.014441
8.825660
8.204579
8.025765
8.303523
8.096695
7.432699
7.620454
7.506609
7.111430
8.107424
7.808805
7.051826
7.622838
6.858706
7.335544
7.909536
7.431507
7.412434
7.450581
6.943941
7.155538
6.805658
7.702708
6.862879
6.600618
7.006526
7.718801
8.069873
6.394982
7.801652
8.052588
7.598996
9.841919
9.592772
12.479424
14.548898
17.281771
18.845797
19.409657
21.960735
23.714900
24.666786
23.207664
21.068454
19.594431
17.705560
15.763640
12.587905
12.457967
9.893775
9.088516
8.002520
7.216930
7.415414
7.375479
7.051826
8.082986
7.612705
7.711649
7.050633
##ZVALUE=220
29.665828
29.464960
33.370852
29.373765
26.262999
23.091435
18.721819
14.319420
12.315512
12.593865
11.924505
11.856556
12.119412
11.461973
10.126829
7.002950
6.221533
5.335808
4.377961
4.203916
4.144907
4.346967
5.122423
4.785657
4.716516
5.638599
6.563663
6.416440
6.786585
8.993745
8.798838
10.756850
10.110736
9.969473
11.053681
11.212826
11.399984
10.959506
10.951757
10.110736
9.546876
11.022687
9.337664
8.781552
8.898973
9.630919
9.252429
9.031892
9.409785
9.563565
9.163618
7.663965
8.863807
8.910894
9.570718
7.788539
8.535981
8.131862
8.564591
9.429455
8.266568
7.793903
8.584857
8.381605
8.934736
9.358525
8.338690
8.429885
9.994507
11.243820
12.969971
15.991926
17.705560
20.019412
23.406744
24.674535
23.863912
25.987625
26.257634
24.745464
23.981929
21.567941
17.861724
16.073585
15.658736
12.042522
11.271834
11.195540
8.814931
9.416938
9.689927
8.603930
8.852482
7.529855
8.547902
10.182858
##ZVALUE=225
54.141879
57.290792
75.459480
88.800788
96.878409
94.053745
83.416700
67.108870
47.777891
37.434697
26.730895
23.233891
24.832487
27.281642
27.457476
24.137497
21.319985
16.834736
13.031960
9.053946
7.468462
5.276799
4.975796
5.750656
5.777478
5.566478
6.976724
8.439422
8.442998
10.361671
9.734631
10.996461
11.337996
12.044907
11.177659
13.050437
12.542605
13.325810
12.612939
13.476610
12.498498
12.904406
11.467934
11.965632
11.819601
11.027455
10.431409
11.392832
9.258986
10.276437
9.002686
9.594560
10.175705
10.368824
9.076595
9.547472
11.145473
10.308623
9.776950
9.009838
9.796619
9.142756
9.371638
9.758472
10.510683
10.984540
11.112690
11.011958
11.909604
13.626814
15.115738
15.736818
19.024611
20.443797
21.695495
21.695495
22.144914
22.619963
20.526648
20.978451
20.320415
18.246770
16.419888
15.946627
15.088916
13.321638
12.753606
13.198853
12.167692
13.162494
12.454987
12.373924
11.910796
10.918975
12.835860
11.127591
##ZVALUE=230
51.358938
55.487752
85.307956
141.968727
175.338984
206.416845
215.907693
205.739737
181.970596
154.358745
101.684928
71.758628
52.461624
44.394732
45.753717
50.088763
53.108931
47.659874
48.429966
34.635663
30.676723
20.022988
12.778640
9.182692
7.192492
6.239414
7.639527
7.999539
8.278489
8.921623
9.929538
9.580851
11.958480
11.901855
13.250709
12.169480
13.031960
10.751486
12.685657
13.497472
12.640953
12.788773
12.057424
11.222959
11.438727
11.015534
11.326671
10.224581
10.417700
11.194944
10.064840
10.735989
9.694695
10.791421
10.117888
9.397864
10.392666
9.859800
10.866523
10.094643
10.892749
11.502504
11.301637
11.618733
11.947751
12.029409
11.802912
13.148785
14.889836
14.394522
18.185973
19.771457
20.828843
21.413565
21.316409
23.121834
24.299622
24.118423
22.563934
21.832585
22.296906
20.472407
20.522475
20.148754
17.548800
16.983747
18.270612
16.257763
16.819835
18.714666
17.281771
17.436743
16.304851
17.908812
16.017556
15.966892
##ZVALUE=235
22.614598
26.280880
55.679679
116.098523
180.580616
276.779532
350.234509
408.564806
424.920917
408.089757
344.509482
273.642540
183.780789
128.522515
90.748668
76.008439
73.281527
79.624653
83.338618
86.164474
81.422925
64.433813
56.029558
35.451651
26.142597
15.864968
12.027621
9.404421
8.381605
8.864999
7.807612
9.902716
9.374619
9.844899
11.193752
10.701418
11.235476
11.699796
9.996891
11.972785
10.843873
10.454655
10.364652
10.999441
10.857582
10.702610
9.941459
10.964870
9.825826
11.087656
10.215640
10.851622
10.856986
11.705756
10.532737
10.790825
10.518432
12.501478
11.038780
11.089444
11.913776
11.427999
13.051629
12.885928
14.155507
13.923645
14.875531
15.538931
16.618967
17.863512
19.073486
22.775531
23.527741
26.394725
24.480820
27.395487
25.372505
29.420853
27.932525
24.143457
27.753711
25.315881
25.198460
24.538636
23.580790
24.925470
23.548603
23.261905
23.978949
22.801757
22.752881
23.663640
23.098588
23.939610
23.446679
21.662712
##ZVALUE=240
2.511740
2.322793
11.367798
28.665662
77.266693
129.502416
240.798593
334.788561
454.507470
525.742769
561.814904
534.818769
482.326746
367.445946
286.388993
183.514953
137.982965
106.010437
90.136528
101.677775
112.383962
119.524002
110.901594
99.467635
83.966851
63.365698
46.141744
32.549500
20.333529
13.103485
9.127855
8.778572
8.170605
7.725954
9.064674
8.258820
8.851886
9.354949
9.076595
9.669662
9.075999
9.389520
9.709597
9.871721
8.925796
9.115934
9.653568
9.555817
9.585619
9.153485
10.153651
10.390878
10.708570
9.603500
9.355545
9.334683
10.674000
11.231899
10.508895
10.974407
12.166500
12.164712
13.641715
13.264418
15.060902
15.016794
15.933514
17.350912
18.006563
19.806623
19.171834
22.636652
25.408864
27.264953
25.765896
28.837919
28.566718
30.129552
29.359460
30.989647
31.909943
29.524565
30.001998
28.222799
30.379891
29.144883
28.285980
30.280948
26.868582
30.641556
28.402805
26.934743
27.399659
28.099418
28.524995
28.128624
##ZVALUE=245
1.835823
2.239943
1.950860
2.053976
6.017685
17.804503
58.815479
115.290880
231.825709
342.466831
490.288734
578.351617
642.565489
637.120605
598.827600
486.377478
389.015675
273.245573
189.315677
121.685863
98.918676
97.962618
113.899708
126.034617
134.480000
123.342872
115.822554
96.334815
69.449544
50.282478
37.571788
23.380518
15.420914
10.056496
9.047985
8.796453
8.313656
9.235740
10.714531
9.100437
9.218454
9.699464
9.360909
9.551644
9.923577
10.243654
9.430647
10.408759
9.685755
9.643435
9.005666
9.996891
9.514689
9.416938
10.385513
9.122491
10.056496
9.699464
11.159778
10.866523
10.653734
10.970831
11.412501
13.035536
12.973547
14.046431
14.479756
15.833974
16.858578
18.658638
20.842552
21.114945
23.525953
24.502873
25.884509
27.965903
27.927756
28.486848
29.680729
29.273629
28.956532
28.353930
30.260682
29.717684
28.692484
29.710531
29.210448
30.419827
28.916597
27.542710
28.668642
28.694868
28.964877
31.412840
30.626655
28.160810
##ZVALUE=250
1.826882
1.581907
1.749992
1.663566
1.486540
2.080798
2.872944
11.730790
43.555498
91.743469
200.531483
308.828950
435.650945
587.194562
680.948496
751.009583
730.266571
651.378632
548.936725
384.421945
265.314579
178.627968
113.783479
93.624592
106.451511
118.102431
133.586526
137.660503
135.569572
121.665597
100.736618
79.414845
58.586001
37.538409
26.047826
14.807582
12.679696
10.795593
10.224581
10.742545
10.790825
11.325479
10.299683
10.497570
11.665821
10.650754
10.560751
10.368824
10.894537
9.588599
10.075569
10.259748
10.456443
9.952784
9.421706
10.097623
10.391474
9.679794
10.366440
9.336472
11.037588
11.007786
11.289716
11.695623
12.262464
13.649464
13.816953
14.164448
15.156865
16.209483
17.526746
19.396544
21.168590
21.545887
24.477839
26.622415
26.185513
27.825832
28.577447
28.707981
27.898550
28.903484
28.989911
28.084517
26.080608
27.837753
28.305650
28.160810
28.741956
28.268695
28.876662
27.723908
29.336810
28.877854
29.126406
29.272437
##ZVALUE=255
1.442432
1.454949
1.548529
1.411438
1.272559
1.881719
1.758933
1.752973
2.072453
5.117655
29.033422
77.888966
192.955732
310.030580
501.270890
662.931800
842.790604
918.681622
951.519608
891.425610
773.833990
580.783486
424.260497
252.679586
162.607431
101.988912
93.033910
107.517838
126.473904
141.825676
151.865482
147.994757
135.511756
108.793974
87.783933
62.064528
42.332411
27.927756
19.659996
15.588999
13.880730
13.095737
14.233589
13.079643
12.187958
13.155937
13.122559
12.054443
12.883544
12.131929
11.272430
11.000633
12.105703
10.753870
11.150837
11.529922
10.764599
10.440946
11.236668
10.396838
10.477901
10.536909
11.117458
11.405945
11.464953
12.959838
13.067722
13.124943
14.486909
16.734600
16.791821
18.795729
20.442605
22.663474
23.467541
25.474429
25.438666
25.262833
26.061535
25.916696
25.855899
25.534630
26.145577
27.360916
25.594831
25.946498
25.659800
27.733445
25.302768
27.571917
28.910637
28.340816
26.754737
29.049516
26.399493
28.471947
##ZVALUE=260
1.419783
1.399517
1.291633
1.401901
1.270771
1.630783
1.808405
1.369715
1.859665
2.002716
2.072453
4.584789
17.801523
74.613690
149.112940
313.934684
471.288562
704.896450
862.112641
1016.062498
1016.062498
1016.062498
990.913510
838.201642
578.852892
404.796600
241.164565
154.868960
93.761683
92.081428
112.017989
133.353472
151.287913
157.934427
157.158971
139.227509
118.986964
90.103745
69.474578
45.856833
34.230947
22.860765
18.515587
16.239882
15.165806
14.382601
14.852881
13.449788
13.120770
13.022423
12.906790
12.735724
11.959672
11.374950
11.473894
11.099577
11.663437
10.875463
10.606647
10.773540
10.746717
11.136532
10.940433
11.482835
11.504889
12.027621
11.157990
12.648702
13.932586
15.369654
15.049577
17.078519
18.110871
17.994642
20.109415
20.800829
21.079779
22.590756
21.790862
22.097826
22.395849
23.825765
22.983551
22.433996
23.750663
23.200512
23.819804
24.441481
24.122000
25.306940
24.999976
24.956465
24.897456
25.277734
25.799870
26.080608
##ZVALUE=265
1.254678
1.156926
1.406670
1.420975
1.551509
1.280904
1.326799
1.523495
1.773834
1.663566
1.688600
1.701713
2.038479
2.457500
6.259680
33.972859
77.538490
176.550746
288.871527
488.125682
648.393035
792.441964
932.042003
952.655673
878.728032
764.290690
568.003654
401.767492
227.617025
141.276717
91.545582
77.575445
87.978840
117.985606
139.874816
159.500837
165.738463
154.920816
143.187642
119.909644
96.693635
68.918467
47.370791
31.722784
22.903681
18.178821
16.072989
15.629530
14.661551
13.775826
13.384819
12.482405
12.555718
12.040734
11.724830
11.788607
10.918975
11.107922
10.808706
10.933876
10.170937
10.432601
10.218620
10.725856
11.357665
11.042953
11.603832
11.903644
12.811422
13.472438
14.267564
14.751554
15.456676
17.752647
17.793775
18.457770
18.706918
19.159913
19.530654
19.793510
20.857453
20.671487
21.532774
21.901727
22.112727
23.179650
22.468567
22.606850
23.216605
24.152994
24.129748
24.410486
24.323463
24.036765
23.606420
24.577975
##ZVALUE=270
1.151562
1.294613
1.297593
1.211762
1.370907
1.226664
1.250505
1.392961
1.246929
1.393557
1.430511
1.576543
1.516938
1.871586
1.994967
1.857877
2.878904
13.553500
39.330721
121.912956
227.342844
368.950963
608.350635
784.967542
941.661596
979.092717
927.225947
817.195773
621.295571
467.919707
285.261869
176.025629
109.205842
68.173409
71.238875
94.699860
115.154982
143.031478
159.923434
167.886615
164.013505
143.812895
120.936632
91.182590
69.392920
46.242476
32.511950
22.703409
17.250776
15.246868
13.887882
13.070703
12.482405
12.697577
11.411905
11.488795
11.414886
11.612773
10.969639
10.842681
10.810494
10.856986
10.867715
10.988712
11.500716
11.286736
11.758804
12.480617
12.262464
13.939738
13.545752
15.680790
16.159415
16.752481
17.069578
17.257929
17.820597
19.226670
18.710494
20.044446
19.433498
20.373464
20.867586
21.057725
20.896792
22.161603
21.745563
23.065805
22.035837
22.236705
22.568703
22.531748
22.409558
22.814870
21.629930
23.539662
##ZVALUE=275
1.054406
0.923872
1.053810
1.009703
1.056790
0.957847
1.189709
1.249909
1.051426
1.160502
1.389980
1.219511
1.330972
1.336932
1.626611
1.453757
1.896620
1.887679
2.225637
6.154776
22.742748
61.321855
166.239738
301.298499
532.763004
702.809691
906.078815
1001.839638
1016.084552
956.181884
823.110938
594.387650
416.348577
221.569538
132.735968
69.597960
56.338906
68.012476
87.525845
117.058754
139.565468
157.760978
163.065791
157.088637
142.862797
112.627745
91.133714
63.403845
47.346950
29.018521
21.638870
15.530586
13.234615
11.951923
11.416674
11.046529
11.626482
10.666847
9.975433
11.026859
10.543466
11.145473
10.934472
10.784864
11.913776
11.542439
12.043715
12.901425
13.087988
13.798475
14.714599
14.897585
16.071796
16.628504
16.897917
17.872453
17.979741
17.977953
18.121600
19.070506
19.846559
19.156933
19.255877
19.846559
20.465851
21.092892
21.240711
20.428896
21.682978
21.421909
20.667911
20.988584
20.766854
20.977855
21.586418
21.517873
##ZVALUE=280
1.069903
0.979900
1.174808
0.964999
1.034737
1.113415
1.111627
0.977516
1.212955
1.157522
1.257658
1.075864
1.325607
1.464486
1.493692
1.437664
1.500845
1.603961
1.601577
1.701713
1.904964
4.404783
21.435618
81.490874
162.603855
323.607922
477.223992
690.846443
845.965743
1004.758477
1016.140580
1012.446880
914.417505
716.470480
544.994473
334.038734
211.680532
99.686980
58.797598
47.706962
59.874654
88.221431
109.944940
135.238767
150.588751
156.010985
150.431991
133.160949
113.754869
84.038973
64.181685
42.161942
29.121637
18.768907
14.403462
11.530519
10.521412
10.320544
10.380745
10.181665
10.685921
11.025667
11.183619
11.817813
12.081861
11.753440
12.762547
12.649894
13.665557
13.463497
15.184879
15.574694
16.710758
16.580820
17.504692
18.327832
19.066930
18.355846
19.076467
19.450784
19.646883
19.660592
19.872785
19.879937
20.590425
20.607710
20.677447
20.631552
20.081997
20.496845
20.461679
20.706654
21.299720
21.093488
21.208525
21.436810
##ZVALUE=285
1.091957
1.019835
1.048446
1.010895
0.980496
1.122952
1.010895
0.999570
1.164675
1.146793
1.292825
1.243949
1.134872
1.311898
1.317859
1.182556
1.350641
1.468658
1.584888
1.528859
1.493692
1.887679
2.025962
2.307892
7.766485
27.178526
93.824863
194.295645
384.474993
560.726523
732.936859
971.395969
1016.140580
1016.140580
1016.140580
896.329880
698.737502
426.539779
266.609788
121.443868
63.013434
35.579801
37.548542
57.490468
76.264739
106.868744
124.458671
142.781734
149.109960
145.724416
132.410526
109.689832
88.388920
62.595606
44.811964
26.076436
19.350648
13.194680
11.427999
10.563731
10.235906
10.705590
10.978580
11.331439
11.566877
12.018681
12.048483
12.768507
13.277531
14.653802
15.455484
15.701652
16.411543
16.805530
18.129945
18.392801
18.282533
19.053817
19.038916
19.234419
19.200444
19.167662
19.841790
20.163655
19.750595
20.219684
19.871593
19.968748
20.405650
20.752549
20.016432
19.996762
19.666553
20.644665
19.765496
20.344853
##ZVALUE=290
1.083612
1.027584
0.999570
1.039505
1.135468
0.966787
0.939965
0.768900
0.949502
1.036525
0.944734
1.166463
1.092553
1.173615
1.063943
1.168847
1.278520
1.318455
1.413822
1.404881
1.419783
1.542568
1.703501
1.806617
1.937747
2.228618
3.108978
12.991428
40.143728
126.336813
234.732628
445.942879
643.710494
908.502936
1016.140580
1016.140580
1016.140580
1004.015803
830.093026
535.832644
342.108607
161.183476
81.936717
34.111738
26.425719
35.134554
49.553514
75.131655
96.195936
120.946765
134.697556
145.250559
141.744614
127.807856
109.347701
81.002712
61.415434
39.848685
28.745532
18.628836
13.948679
11.703968
10.865927
11.361837
11.069775
12.131929
12.305975
13.057590
13.376474
14.789701
14.719963
15.418530
16.105771
17.028451
17.471910
17.819405
18.098950
18.421412
19.451976
18.916726
18.915534
19.971728
19.155741
20.353794
19.624829
20.673871
19.861460
20.311475
20.234585
19.859672
20.434856
19.944906
20.081997
20.667911
19.790530
19.906759
##ZVALUE=295
0.926852
0.936985
0.931621
0.991821
0.923872
0.908971
1.034737
0.968575
0.988841
1.031756
1.099706
1.080632
0.999570
1.063943
1.091957
1.038909
1.115799
1.366735
1.176596
1.446605
1.233816
1.461506
1.681447
1.604557
1.471639
1.760721
1.850724
1.783967
2.145767
3.789663
13.858676
65.221786
155.748725
358.064771
554.148555
841.077566
1011.536717
1016.140580
1016.140580
1016.140580
946.210623
657.534599
443.034768
224.554539
117.369890
42.202473
23.780465
21.903515
29.580593
48.105717
65.804720
93.516707
111.128688
129.094720
137.912631
133.520961
123.065710
101.796985
82.128644
57.272911
42.871833
27.629733
20.042658
14.563799
12.788773
12.295842
12.196898
12.904406
13.757944
14.445782
15.042424
15.869737
16.496778
17.700791
18.172860
18.286705
18.366575
19.192696
19.850731
19.736886
19.669533
20.178556
19.869804
20.007491
20.378828
20.826459
20.543933
20.363927
20.648837
20.870566
19.804835
20.410419
20.350814
19.893646
19.829869
19.627810
##ZVALUE=300
0.827909
0.749826
0.898838
0.821948
0.887513
0.775456
0.836849
0.900626
0.873804
0.925660
0.960827
0.813603
1.028776
0.964999
0.917912
0.933409
1.183748
1.051426
1.159906
1.044869
1.299977
1.260638
1.268983
1.247525
1.348853
1.508594
1.494884
1.744628
1.958609
1.900792
2.215505
2.426505
8.395910
28.732419
104.812980
216.113925
451.540947
689.788461
997.627974
1016.140580
1016.140580
1016.140580
1016.140580
961.061716
607.848763
373.075008
172.786713
89.259744
33.079982
18.416643
18.913746
26.798844
42.492747
58.748722
83.473921
102.624893
123.294592
130.433440
128.681660
120.519996
99.000931
84.102750
60.255527
45.132637
29.522777
22.316575
16.566515
14.694929
14.198422
14.494658
15.402436
15.616417
17.032623
17.179847
17.714500
18.120408
18.780828
19.035935
19.473433
19.898415
20.700693
20.748973
20.413995
21.124482
20.722747
20.715594
21.228790
20.926595
20.864606
20.559430
20.784736
20.490885
20.824671
19.933581
20.556450
20.257831
##ZVALUE=305
1.010895
1.113415
0.828505
0.823736
0.990629
1.019835
1.066923
0.960827
1.060963
0.905991
0.916719
0.985861
0.888705
0.991821
0.858903
0.846982
0.986457
1.010895
0.973940
0.972748
0.931621
1.201630
1.233816
1.250505
1.143813
1.325607
1.428723
1.238585
1.350641
1.642704
1.662970
1.936555
1.921654
2.081990
3.352761
17.495751
46.873689
137.895942
255.785584
476.301908
685.572624
993.399024
1016.140580
1016.140580
1016.140580
1016.140580
933.365822
568.552613
327.680707
125.374794
53.682923
19.584894
14.186502
18.141866
25.802851
41.291714
57.285428
82.129836
98.915696
118.500590
123.619437
123.708844
114.546418
96.837878
80.692768
58.630705
44.394732
29.975772
23.031831
18.056631
16.908646
16.457438
16.715527
17.849803
18.007755
18.718839
18.989444
19.331574
19.763708
20.315647
20.236969
21.157861
21.516681
21.699667
21.744967
21.895766
22.311807
21.995902
22.243857
21.289587
21.512508
20.737648
20.916462
20.688772
20.357966
20.347834
##ZVALUE=310
0.748634
0.910759
0.862479
0.703931
0.742674
0.834465
0.808835
1.078844
0.756979
0.891685
0.925660
0.864863
0.934601
0.926852
0.910759
0.763535
0.922680
0.897646
1.058578
0.920892
0.975728
1.192689
0.911951
1.224875
1.155734
1.086593
1.131892
1.336932
1.227856
1.206994
1.321435
1.338720
1.465678
1.797676
1.921654
1.872778
2.121925
7.664561
23.374557
75.775981
147.125721
295.813680
454.014540
713.419914
957.018733
1016.140580
1016.140580
1016.140580
1016.140580
790.495872
506.119728
225.279927
105.362535
32.325983
15.086532
12.852550
16.102791
24.141669
34.561753
53.271651
69.797635
93.450546
106.819868
117.729902
118.923783
110.008717
99.242926
78.986883
62.392950
43.892860
33.438802
25.620461
21.084547
19.510984
18.453598
19.042492
19.250512
19.240975
19.761920
20.291805
20.748973
21.486878
21.792650
22.175908
22.173524
22.539496
22.434592
22.971630
22.609830
21.696687
21.961927
21.367669
20.967722
21.082759
20.880699
20.733476
##ZVALUE=315
0.676513
0.761747
0.772476
0.704527
0.756979
0.730753
0.719428
0.745654
0.842810
0.799894
0.866652
0.861883
0.876784
0.912547
0.847578
0.836849
0.858903
0.846982
1.022816
0.880957
0.968575
1.026988
0.859499
1.025796
1.037717
1.129508
0.999570
1.148582
1.090765
1.154542
1.217723
1.270771
1.352429
1.412630
1.481771
1.686811
1.515746
1.744628
2.047420
4.724860
15.815496
55.399537
112.199783
236.284733
372.442603
592.253804
761.566758
985.142589
1016.140580
1016.140580
1016.140580
867.290497
627.948642
332.869887
175.662637
57.182908
22.766590
11.675954
11.554956
15.903711
22.419691
35.778880
48.403740
69.264770
86.074471
105.010867
112.505555
113.784671
107.053518
92.861652
79.376698
60.149431
46.980977
33.870935
26.820898
22.432804
21.029711
19.476414
19.944906
20.312667
20.584464
21.490455
22.014976
22.132993
22.362471
22.515655
22.331476
22.817850
22.942424
22.245646
22.004843
22.093654
21.969676
21.949410
21.192431
21.008849
##ZVALUE=320
0.704527
0.703931
0.650883
0.544786
0.646710
0.779629
0.691414
0.864863
0.583529
0.775456
0.746846
0.643730
0.782609
0.742674
0.746846
0.881553
0.880957
0.840425
0.742674
0.749826
0.719428
0.946522
0.929832
0.766516
0.893474
0.988841
1.130700
1.083612
1.059771
0.991821
1.063943
1.192689
1.162887
1.206994
1.202822
1.291633
1.382828
1.474619
1.703501
1.635551
1.710653
2.360940
6.993413
32.846928
75.401664
181.793571
287.748575
471.957922
624.138713
814.846754
923.039913
992.335677
955.948830
820.271969
663.548708
409.289598
250.328779
112.030506
47.923923
14.269948
10.660887
11.860728
14.809966
21.725893
30.708909
47.910810
63.190460
82.446933
98.091960
109.551549
111.487508
103.355646
93.898773
75.765848
61.529875
44.882894
35.896897
28.110743
23.673773
21.503568
21.336675
21.447539
21.461844
21.825433
22.144914
22.700429
22.525787
22.533536
22.123456
22.580624
22.290945
21.750927
22.363663
21.767616
22.249818
22.201538
##ZVALUE=325
0.701547
0.775456
0.530481
0.685453
0.565648
0.756979
0.634789
0.867844
0.763535
0.809431
0.834465
0.890493
0.861883
0.636578
0.739694
0.886917
0.946522
0.802875
0.751615
0.694990
0.856519
0.837445
0.852942
0.925660
0.860691
0.929832
1.059771
1.010895
1.031756
0.948906
1.059771
0.932813
0.991821
1.134872
0.947714
1.316667
1.234412
1.170635
1.134872
1.390576
1.437664
1.453757
1.633763
1.778603
3.772974
21.901727
52.707791
128.930807
221.945643
392.071009
538.022518
728.670955
835.569501
882.684588
834.789872
674.692988
519.104600
322.719812
200.831890
94.237924
49.955845
18.773675
11.514425
10.550618
11.526942
15.487671
20.942688
32.149553
45.004487
65.215826
79.508424
95.254779
102.666616
104.691982
100.429654
85.489750
72.856545
56.777000
45.656562
33.370852
28.316975
24.587512
22.559762
22.215843
21.976829
22.383928
22.241473
22.176504
22.033453
22.320747
22.372603
21.879673
21.898746
21.665692
21.715760
21.294951
##ZVALUE=330
0.776649
0.655651
0.814795
0.711679
0.900626
0.774860
0.703931
0.755787
0.744462
0.702739
0.587702
0.766516
0.602603
0.762939
0.643730
0.721812
0.756979
0.798702
0.736713
0.817776
0.801682
0.716448
0.992417
0.766516
0.775456
0.998974
0.933409
0.873804
0.861883
0.954866
0.805855
0.676513
0.806451
0.968575
0.988841
0.998974
1.121759
1.010895
1.011491
1.327991
1.249909
1.177788
1.372695
1.375675
1.610518
1.642704
2.060533
9.087920
28.041601
87.469816
160.069466
305.046439
440.882444
630.545616
754.255652
851.140022
838.354826
722.620487
590.717793
386.945605
249.398947
116.030574
59.873462
23.295879
12.652874
10.211468
10.512471
12.492537
15.384555
22.634864
30.992627
46.122670
59.815645
79.421997
89.296699
98.764896
99.293590
93.801618
84.996819
68.247914
56.448579
42.478442
35.250783
28.735995
25.666952
23.113489
22.303462
21.895766
21.693707
21.687746
21.838546
21.456480
21.341443
21.553636
21.094680
21.683574
##ZVALUE=335
0.653863
0.715852
0.705719
0.653863
0.614524
0.670552
0.663996
0.714660
0.629425
0.611544
0.722408
0.816584
0.660419
0.660419
0.726581
0.643730
0.799894
0.720620
0.757575
0.747442
0.673532
0.648499
0.819564
0.694990
0.709891
0.851750
0.832677
0.903606
0.836849
0.885725
0.901818
0.876784
0.836849
0.833869
0.822544
0.975728
0.954866
0.999570
0.981688
1.086593
1.046658
1.150966
1.059771
1.173615
1.298785
1.440644
1.460910
1.549721
1.615882
4.332662
13.590455
51.447749
106.825829
233.130455
363.820791
563.298464
694.825649
815.623999
835.307837
767.657757
655.677915
459.292531
313.357711
164.169669
87.409616
32.512546
15.925765
10.969639
10.532737
11.026859
12.476444
16.153455
21.318793
31.950474
42.694807
59.552789
73.105693
86.824894
93.365908
94.620585
90.203881
78.441501
67.968965
55.750608
45.131445
35.450459
29.264688
25.015473
22.879839
21.742582
20.837784
20.969510
20.890832
20.412803
20.433664
20.560622
##ZVALUE=340
0.607967
0.668764
0.708699
0.718832
0.684857
0.724792
0.516772
0.620484
0.739694
0.626445
0.659823
0.635982
0.653863
0.490546
0.652671
0.773668
0.575781
0.721812
0.710487
0.769496
0.718832
0.814795
0.681877
0.712872
0.912547
0.767708
0.700951
0.826716
0.871420
0.842810
0.733733
0.826716
0.943542
0.743866
0.892878
0.896454
0.800490
0.930429
0.868440
0.951886
0.984669
1.020432
1.063943
1.098514
1.147985
1.164675
1.195669
1.296997
1.198649
1.490712
1.559854
2.234578
6.483793
29.517412
70.053935
171.668530
283.582807
455.620885
588.160753
739.522576
814.206600
824.231505
761.342645
601.656437
443.387628
240.734816
127.505660
47.164559
21.992922
11.481643
10.631680
11.123419
11.753440
13.655424
16.730428
23.322701
30.218959
43.536425
55.245757
70.744753
81.208944
88.680983
89.312792
85.184574
77.178478
64.421892
54.604411
42.447448
35.244823
28.021932
24.320483
21.501780
20.399690
19.872785
19.824505
19.531846
##ZVALUE=345
0.385642
0.490546
0.456572
0.458956
0.465512
0.524521
0.347495
0.436902
0.381470
0.402927
0.419617
0.511408
0.509620
0.563860
0.450611
0.466704
0.527501
0.654459
0.504851
0.505447
0.529885
0.672936
0.609756
0.476837
0.524521
0.570416
0.527501
0.520945
0.599623
0.588894
0.713468
0.528693
0.688434
0.565648
0.703931
0.780821
0.539422
0.728965
0.804663
0.857711
0.723600
0.756979
0.694990
0.807643
0.767708
0.816584
0.849962
0.873804
1.003742
1.077652
1.243949
1.315475
1.306534
1.507998
2.932549
19.228458
54.607987
141.759515
241.572857
409.125686
538.221002
693.454742
783.082843
853.450894
863.245726
783.757567
653.708577
431.761742
257.401466
97.440481
39.884448
14.692545
11.153817
10.910630
11.365414
11.813641
13.230443
16.068816
20.288825
29.294491
38.977861
53.596497
63.983798
74.642897
80.804825
83.691478
81.605911
73.205829
64.225793
52.650571
43.151975
33.018589
27.422905
22.365451
20.316839
19.801855
##ZVALUE=350
0.342727
0.473857
0.406504
0.270605
0.280738
0.383854
0.397563
0.424981
0.380874
0.467896
0.423789
0.446439
0.367761
0.361800
0.359416
0.258684
0.412464
0.470877
0.330806
0.506639
0.424981
0.416636
0.409484
0.517964
0.403523
0.433922
0.444651
0.344515
0.520945
0.484586
0.547767
0.527501
0.603795
0.474453
0.612736
0.519753
0.572801
0.597835
0.524521
0.491738
0.601411
0.635982
0.602603
0.777841
0.790954
0.548959
0.562668
0.669956
0.697970
0.920892
0.873804
0.904799
0.839829
0.999570
1.221895
1.316667
2.123713
6.885529
30.511618
73.784590
184.829831
307.843685
498.836637
630.464554
768.637657
813.024640
807.140470
753.695965
615.970492
471.825004
276.590586
162.834525
62.589645
23.201704
10.487437
10.138750
10.149479
10.713935
11.648536
12.731552
15.875697
19.554496
26.927590
34.366846
46.314597
56.218505
67.482591
73.310733
76.590776
74.073672
67.581534
60.251951
48.493743
39.953589
31.411648
26.374459
##ZVALUE=355
0.451803
0.324845
0.352859
0.403523
0.416636
0.521541
0.464916
0.271797
0.510812
0.340939
0.271797
0.404716
0.446439
0.490546
0.475645
0.525713
0.469685
0.500679
0.386834
0.557899
0.513792
0.545979
0.619888
0.451803
0.372529
0.554919
0.456572
0.415444
0.589490
0.582933
0.441670
0.411868
0.500679
0.504851
0.615716
0.616908
0.523925
0.501871
0.759959
0.632405
0.544786
0.721812
0.736713
0.689626
0.694990
0.571609
0.534654
0.666976
0.785589
0.808835
0.741482
0.619888
0.922680
0.889897
0.979900
1.037717
0.974536
1.357794
1.572967
4.332662
15.326738
59.981942
127.024651
268.640518
415.871739
617.640615
727.713704
790.485740
770.854950
652.315021
546.364784
397.718549
277.818441
147.759914
80.107450
26.286840
12.561679
9.959936
9.832978
10.198951
10.573864
11.621714
12.409687
14.449954
17.250776
23.010969
30.682683
40.930510
49.119592
61.636567
66.240430
67.884922
68.272948
58.724880
54.176450
39.836764
##ZVALUE=360
0.670552
0.604987
0.568628
0.521541
0.657439
0.683665
0.545979
0.586510
0.633597
0.672936
0.568628
0.619888
0.664592
0.681877
0.752807
0.746846
0.682473
0.639558
0.582933
0.606775
0.668764
0.789762
0.708699
0.756979
0.744462
0.748634
0.792742
0.752807
0.898838
0.667572
0.712872
0.786781
0.735521
0.766516
0.901818
0.780821
0.795722
0.884533
0.731945
0.740886
0.791550
0.889897
0.807643
0.852942
0.877976
0.848770
0.835657
1.038909
1.158714
0.980496
0.859499
1.045465
1.001954
1.086593
1.063943
1.021624
1.162887
1.294613
1.227856
1.519918
1.475811
1.833439
7.691979
23.862720
76.234937
147.837996
290.016532
427.662730
609.519482
692.991614
719.229579
670.078993
522.836447
391.764641
242.123008
150.619745
68.159699
34.406781
13.661981
9.790659
9.116530
9.320974
9.843707
9.832978
10.489821
11.260509
13.110638
15.234947
20.328760
25.971532
34.750700
42.884946
52.915812
58.697462
62.834620
63.509941
##ZVALUE=365
0.844598
0.852942
0.779629
0.813603
0.857711
0.828505
0.877976
0.767708
0.702739
0.667572
0.792742
0.834465
0.822544
0.690818
0.826716
0.906587
0.810623
0.966787
0.843406
0.720620
0.753999
0.728965
0.888705
0.874996
0.767708
0.860691
0.747442
0.886917
0.787973
0.894666
0.913739
0.816584
0.784993
0.715852
0.932813
0.904799
0.817776
0.764728
0.911951
0.991821
1.066923
0.896454
0.961423
0.953674
1.037717
1.094937
0.947714
0.940561
0.899434
1.064539
1.126528
1.172423
1.101494
1.161695
1.251698
1.262426
1.291633
1.230836
1.140833
1.395941
1.533628
1.580715
1.719594
1.957417
3.470778
16.366839
42.652488
115.166903
223.013759
430.489779
583.516955
743.860006
805.365443
748.346448
630.083680
436.766744
304.178596
164.646506
89.758635
35.249591
16.836524
9.154677
8.841753
8.791685
9.141564
9.549856
9.383559
9.815693
10.415912
11.568666
13.373494
17.786622
21.828413
30.282736
37.593842
46.060681
##ZVALUE=370
0.624657
0.616908
0.694990
0.371933
0.689626
0.554919
0.639558
0.657439
0.756979
0.657439
0.621676
0.644922
0.703931
0.538826
0.569820
0.662804
0.535846
0.677705
0.648499
0.684857
0.543594
0.634789
0.555515
0.707507
0.594854
0.688434
0.726581
0.515580
0.676513
0.681877
0.911951
0.695586
0.610948
0.712872
0.744462
0.658631
0.667572
0.627637
0.837445
0.835657
0.820756
0.792742
0.646710
0.691414
0.766516
0.785589
0.779629
0.768900
0.772476
0.901818
0.919700
0.773668
0.923872
0.802875
0.817776
0.998974
1.032948
0.920892
1.003742
0.956655
1.116991
1.176000
1.177788
1.171827
1.173615
1.370907
1.970530
8.545518
27.678609
85.615516
152.789950
280.984640
403.413773
562.914014
647.283792
668.798685
620.846748
482.520461
354.797840
199.550986
112.675428
46.536922
22.714734
11.026859
8.238554
8.069873
7.977486
8.086562
8.391738
8.505583
8.909702
9.527802
10.115504
12.287498
15.052557
19.913912
##ZVALUE=375
0.539422
0.491738
0.486970
0.515580
0.364780
0.540614
0.618696
0.600815
0.661612
0.756979
0.644922
0.756979
0.671744
0.549555
0.622869
0.590682
0.652671
0.513792
0.518560
0.785589
0.612736
0.722408
0.668764
0.621676
0.664592
0.750422
0.647902
0.701547
0.635982
0.631809
0.653863
0.702739
0.740886
0.679493
0.687838
0.648499
0.694990
0.821948
0.615716
0.666976
0.821948
0.753999
0.744462
0.697970
0.708699
0.505447
0.801682
0.696778
0.763535
0.718832
0.707507
0.640750
0.605583
0.747442
0.861883
0.857711
0.960827
0.830889
0.949502
0.948906
0.959635
1.007915
0.870824
1.159906
1.037717
1.227856
1.369715
1.514554
1.521707
4.506707
14.600754
52.614808
108.720660
231.533647
344.671011
498.714447
586.993694
639.858842
621.024966
515.111685
402.743816
247.809887
153.792500
72.362423
37.672520
14.960766
8.891821
7.327795
7.419586
7.392764
7.498860
7.696748
8.107424
8.221865
8.461475
9.247661
##ZVALUE=380
0.427961
0.491738
0.415444
0.447631
0.501871
0.324845
0.543594
0.458956
0.501871
0.668764
0.448823
0.479817
0.528693
0.542998
0.392795
0.432730
0.512600
0.345707
0.454783
0.481606
0.497699
0.465512
0.519753
0.499487
0.416636
0.464916
0.487566
0.478625
0.537634
0.504851
0.501871
0.653863
0.453591
0.541806
0.517964
0.561476
0.504851
0.500679
0.517964
0.612736
0.602603
0.559688
0.586510
0.423789
0.648499
0.527501
0.462532
0.527501
0.574589
0.645518
0.643730
0.511408
0.664592
0.734925
0.677705
0.727773
0.751615
0.759959
0.809431
0.716448
0.734925
0.683665
0.914931
0.771880
0.825524
0.835657
0.760555
0.959635
0.830889
1.253486
1.281500
2.519488
8.383989
37.612915
84.982514
192.895532
299.263000
450.576544
555.000901
626.449585
619.836450
527.261496
429.045558
297.770500
200.154781
98.044872
52.614808
20.037889
10.585785
6.967783
6.755590
6.455779
6.544590
6.954670
7.173419
7.317662
##ZVALUE=385
0.651479
0.597835
0.550747
0.590682
0.604987
0.578761
0.651479
0.520945
0.458956
0.524521
0.551939
0.600815
0.544786
0.773668
0.716448
0.582933
0.681877
0.655651
0.593662
0.545979
0.577569
0.623465
0.745654
0.580549
0.559688
0.539422
0.550747
0.617504
0.857711
0.687838
0.430942
0.640750
0.599623
0.618696
0.642538
0.834465
0.631809
0.494719
0.617504
0.795722
0.800490
0.559688
0.590682
0.704527
0.724792
0.529885
0.718832
0.697970
0.640750
0.678897
0.676513
0.681877
0.799894
0.645518
0.779629
0.710487
0.715852
0.895858
0.773668
0.798702
0.755787
0.865459
0.876784
0.713468
0.928640
0.991821
1.003742
1.160502
1.104474
1.162887
1.308918
1.138449
1.387596
1.774430
4.411936
21.926761
54.275990
134.825706
235.434771
403.483510
523.716807
624.497533
641.897917
593.004823
507.524014
364.201665
254.264474
139.894485
81.045628
34.892559
16.196966
7.244945
6.220937
6.091595
6.153584
6.342530
##ZVALUE=390
0.531673
0.592470
0.562668
0.601411
0.508428
0.474453
0.542998
0.418425
0.622869
0.676513
0.517964
0.468493
0.640750
0.570416
0.551939
0.717640
0.570416
0.532866
0.610948
0.596642
0.463724
0.557899
0.549555
0.486970
0.610948
0.580549
0.445843
0.653863
0.746846
0.507832
0.651479
0.529885
0.626445
0.657439
0.576973
0.651479
0.629425
0.666976
0.735521
0.675917
0.639558
0.669956
0.689626
0.765920
0.720620
0.688434
0.780821
0.712872
0.671744
0.747442
0.875592
0.747442
0.691414
0.626445
0.787973
0.700951
0.701547
0.796914
0.721812
0.920892
0.695586
0.832677
0.797510
0.792742
0.854731
0.766516
0.950694
0.994802
0.975728
1.094937
1.049638
1.228452
1.174808
1.295805
1.155734
1.349449
2.438426
12.921691
38.545728
107.968450
197.204947
353.964567
470.193624
591.187477
649.228692
646.649003
578.809977
448.044538
339.039564
204.765797
120.468736
51.036477
24.856925
9.367466
6.208420
5.671978
##ZVALUE=395
0.498891
0.574589
0.593662
0.741482
0.776649
0.626445
0.802875
0.709891
0.573993
0.724792
0.563860
0.639558
0.441670
0.605583
0.560880
0.709891
0.492930
0.587702
0.553727
0.564456
0.552535
0.521541
0.591874
0.626445
0.594854
0.678897
0.661612
0.693798
0.697970
0.587702
0.671744
0.618696
0.607967
0.704527
0.653863
0.776649
0.501871
0.721812
0.672936
0.734925
0.619888
0.677705
0.715852
0.667572
0.711679
0.767708
0.750422
0.745654
0.787973
0.724792
0.796914
0.651479
0.847578
0.668764
0.742674
0.774860
0.692606
0.810623
0.828505
0.881553
0.681877
0.824928
0.889897
0.827909
0.916719
0.724792
0.961423
0.972748
1.065731
1.110435
1.152754
1.226664
1.132488
1.266599
1.125932
1.114607
1.170635
1.220703
1.666546
6.997585
24.804473
82.376003
150.072575
274.539590
399.533510
562.920570
650.512576
693.868995
654.332638
540.672541
416.279435
255.412459
161.554813
77.470541
29.879808
14.237761
##ZVALUE=400
0.556707
0.470877
0.658631
0.455976
0.441670
0.466704
0.559688
0.443459
0.609756
0.414848
0.609756
0.485778
0.592470
0.509620
0.657439
0.575781
0.659823
0.514984
0.567436
0.541806
0.512600
0.349879
0.579953
0.611544
0.477433
0.531673
0.527501
0.528693
0.618696
0.541806
0.547767
0.633597
0.582933
0.612736
0.548959
0.591874
0.762939
0.707507
0.639558
0.635982
0.564456
0.659823
0.661612
0.621676
0.668764
0.799894
0.686646
0.713468
0.770688
0.772476
0.821948
0.706911
0.692606
0.667572
0.556707
0.766516
0.688434
0.568628
0.709891
0.614524
0.511408
0.769496
0.601411
0.690818
0.822544
0.802875
0.708699
0.777841
1.000762
1.053810
0.977516
1.159906
0.952482
1.015663
1.137853
0.997782
0.972748
1.109838
1.308918
1.271963
1.307726
2.717972
13.459921
38.852692
108.037591
192.207694
351.090431
476.109982
618.515015
674.361587
663.461685
593.891740
445.238948
324.060917
185.633898
110.220909
##END
