##TITLE=FQP00602
##FORMAT=SPECTACLE-ASCII V-1.2
##DATA TYPE=ULTRAVIOLET SPECTRUM
##SECOND TYPE=ULTRAVIOLET SPECTRUM
##DATE=03/05/18
##TIME=13:02:50
##SPECTROMETER/DATA SYSTEM=SPECTACLE
##XUNITS=NM EM
##YUNITS=ENERGY
##YFACTOR=1
##FIRSTX=220
##LASTX=410
##NPOINTS=96
##3DDATA=Equidistant
##ZUNITS=NM EX
##FIRSTZ=210
##LASTZ=400
##ZPOINTS=39
##XYDATA=(Y..Y)
##ZVALUE=210
2.097487
2.127886
2.229810
2.237558
2.878904
2.534986
2.750754
2.685785
2.626777
2.627969
2.162457
2.434850
2.633929
3.240705
2.946854
2.646446
2.622604
2.884865
2.598763
2.854466
3.725886
3.759861
3.615618
3.806949
4.437566
5.283952
5.349517
5.059838
4.561543
5.820990
6.209612
7.271767
6.414652
7.909536
7.542968
7.435679
7.035732
7.580519
7.444620
7.604957
6.889701
7.472634
6.576777
7.333755
6.947517
6.968975
7.301569
6.768703
5.982518
6.700754
6.490946
6.551743
6.574988
6.547570
6.959438
6.774664
6.190538
6.107688
6.801486
6.134510
7.001758
6.687641
5.741715
6.729960
6.845593
5.921721
7.144809
7.528663
8.529425
9.952784
10.751486
11.970997
14.624000
14.950633
18.054843
17.424822
18.610954
19.635558
20.350814
19.163489
17.688870
17.949939
15.698671
14.072657
12.249947
10.054708
8.111000
6.601810
6.274581
5.902648
5.839467
6.995797
7.260442
6.140471
5.967617
6.979704
##ZVALUE=215
6.291866
6.572604
5.574822
5.478859
4.024506
4.365444
4.489422
5.041957
5.885959
5.493760
5.736947
4.422665
4.067421
3.179908
3.322959
2.925992
2.698898
2.901554
3.505945
3.263950
3.219843
4.618764
4.245639
3.477931
4.843473
4.532933
5.757809
6.076694
6.547570
7.995963
8.043647
9.817481
10.076761
11.517406
10.355711
10.710955
10.807514
10.245442
9.262562
10.053515
10.311604
8.721948
9.303689
8.298755
8.797646
7.951856
7.996559
8.111000
7.154942
9.162426
8.149743
7.242560
7.401705
6.871819
7.440448
7.114410
6.961823
6.608963
6.620884
6.665587
7.001758
6.551743
6.644726
6.050467
6.561875
6.790757
6.583929
6.988645
7.222891
9.057522
10.380745
11.412501
11.970997
13.846755
14.247894
15.471578
14.002919
16.908646
16.403794
15.080571
13.630986
11.752844
11.447668
9.994507
8.416772
7.853508
6.903410
6.662607
5.713701
6.131530
5.538464
6.106496
5.932450
5.804896
6.222725
6.803870
##ZVALUE=220
20.747781
22.937655
22.958517
22.410750
21.132827
17.953515
14.935732
12.083650
8.677840
10.645986
13.257861
12.088418
11.779666
10.299683
8.898973
8.447766
5.213618
4.748702
3.481507
4.095435
3.759861
3.501773
3.326535
5.155802
4.998446
5.281568
6.335974
7.644892
9.079576
11.408925
12.266636
13.149977
14.787912
16.050935
16.122460
15.792847
16.000867
15.620589
15.302896
14.840961
15.278459
13.077855
14.679432
12.814999
12.531877
13.041496
10.442734
10.914803
10.320544
9.115934
10.626912
9.401441
9.201765
8.930564
8.290410
9.412766
8.883476
7.198453
7.240772
7.999539
8.281469
8.152723
7.914901
7.768869
8.372664
8.292794
7.896423
8.433461
8.509755
9.752512
9.990931
13.483763
14.052987
14.730692
16.209483
15.531778
16.856790
17.648935
16.234517
16.495585
15.527606
15.302896
13.266802
12.585521
11.699796
10.309815
8.799434
7.805824
8.141994
6.455779
7.497668
7.926822
7.840991
6.940961
8.363724
7.775426
##ZVALUE=225
40.703416
40.210485
59.049726
67.709684
73.303580
76.903701
68.106651
55.261850
38.760900
33.296943
24.056435
21.538734
23.972988
25.376678
25.033951
25.018454
20.594001
16.279817
13.608932
9.035468
7.024407
5.100965
5.315542
5.024672
4.783869
7.071495
7.142425
8.923411
12.119412
12.710690
14.017820
14.260411
16.743541
18.011928
19.310713
19.569993
20.189881
19.645691
20.137429
18.819571
17.788410
16.619563
17.552972
15.974641
15.658736
15.227795
13.913512
14.474988
12.540817
13.547540
13.024807
11.885762
11.792779
10.787845
10.343790
10.311604
9.632707
8.857846
10.749698
10.392666
9.670854
9.997487
9.739995
9.776950
9.590983
9.434819
9.729862
11.122823
11.269450
12.603998
13.603568
14.425516
14.517903
16.578436
17.228723
18.265843
17.918944
15.837550
16.755462
17.179847
17.075539
15.256405
14.435649
13.655424
14.379621
11.860728
11.556745
11.133552
11.714697
11.074543
11.251569
10.399818
10.205507
10.930896
10.900497
10.436773
##ZVALUE=230
34.238696
40.079951
62.901974
103.450418
131.749511
167.717934
185.243487
176.532865
166.924596
133.102536
95.320940
67.589879
47.993660
43.070912
45.318604
48.670769
48.687458
48.228502
44.476986
36.321878
27.145743
18.378496
12.357831
9.478927
6.774664
7.230639
8.210540
8.480549
9.922981
12.102723
12.674928
15.040636
15.844703
16.553998
16.230941
17.100573
19.557476
16.677976
17.951727
18.439889
16.508698
15.071630
15.692711
13.807416
14.179945
13.718605
13.462901
13.433695
13.292432
13.542771
11.508465
12.401938
12.853742
12.307763
12.175441
11.941791
10.834932
11.472702
11.924505
12.392998
12.145638
12.062788
12.066960
11.055470
12.499690
12.063980
12.873411
13.521910
12.061000
14.607906
16.705990
17.282963
17.773509
18.590689
21.162629
20.838976
20.007491
20.190477
20.260811
22.284985
20.026565
20.672679
18.123984
18.189549
18.492937
16.785860
15.793443
16.331673
16.687512
16.532540
15.761852
15.528798
15.377998
16.801953
16.341805
17.414689
##ZVALUE=235
12.677908
14.592409
31.363964
76.284409
121.858716
195.968747
258.024931
331.640840
362.187624
370.335579
318.310857
263.841748
176.676512
129.868984
90.117455
72.744489
69.147944
77.931881
83.402991
83.800554
80.049634
63.533783
51.125884
38.633943
23.794770
15.914440
11.809468
8.739829
9.132624
8.525848
10.020733
10.239482
11.256933
11.700988
12.320876
13.484955
14.213920
14.038682
13.315678
14.449954
14.401674
13.466477
13.542771
14.785528
13.476610
13.216734
12.396574
13.363957
13.703704
12.326837
12.636781
11.484623
11.757612
12.615919
12.906790
12.868643
11.721849
13.178587
12.497902
14.595985
12.913942
14.339685
11.892915
14.235973
14.728904
14.749765
16.276836
16.366839
19.437671
19.481778
19.136667
22.728443
22.044778
25.988817
25.605559
27.235746
26.896596
26.227832
24.020672
26.276708
26.591420
24.760962
26.423931
23.311973
25.225878
23.575425
24.484992
23.050904
24.101734
23.041964
23.256540
23.368597
23.247600
23.318529
22.074580
22.871494
##ZVALUE=240
2.106428
2.276897
6.453991
16.870499
47.238469
86.914897
169.671774
262.205601
388.239622
472.862720
554.143786
550.422668
500.941873
406.191945
315.346718
199.374557
152.277946
108.409524
100.329518
105.767846
112.140775
118.498802
114.731789
102.066994
82.155466
66.624880
46.548843
32.508969
18.828511
15.345812
11.191964
10.047555
9.767413
10.672808
11.038780
12.822747
11.919737
11.859536
11.900663
10.639429
12.159944
12.975931
13.177991
13.927817
12.612939
12.940764
12.471676
13.937950
11.512637
12.365580
12.914538
11.505485
12.826920
11.751652
12.376904
12.568831
13.298988
13.125539
14.413595
14.110804
15.201569
14.611483
15.688539
15.136600
16.517639
16.506910
17.121434
18.269420
19.858479
21.699667
22.825599
23.217797
26.714802
28.850436
27.360916
29.933453
29.905438
31.079650
30.935407
29.805899
30.585527
30.403733
31.972528
30.267835
29.679537
30.493736
28.542876
29.532909
30.489564
30.693412
30.737519
29.663444
28.834939
29.544830
30.194521
30.053854
##ZVALUE=245
1.970530
1.707673
2.206564
1.875758
3.868937
10.748506
34.510493
79.002976
178.990960
275.186896
438.980460
547.552705
632.375479
673.523545
642.345548
537.538528
432.885885
291.699767
207.881927
135.052800
105.760694
100.090504
115.405917
123.523474
134.682655
128.860474
113.685727
98.626614
73.234439
54.651499
38.934946
24.319887
17.922521
13.659596
13.023615
12.094975
11.789799
12.283921
13.849735
13.544559
12.425780
13.472438
14.175773
13.848543
14.321804
13.260841
12.984872
13.618469
13.583899
13.324618
12.089610
12.829900
11.983514
12.846589
13.047457
12.772679
13.478994
12.761950
13.792515
13.037920
12.648702
13.988614
12.973547
14.716983
15.923977
16.542673
17.190576
17.267466
19.143820
20.278692
21.163821
22.758842
23.743510
26.066899
27.117729
27.285814
26.109815
30.251741
29.921532
29.154420
29.225945
29.290915
29.348731
29.126406
30.310750
31.205416
28.677583
29.396415
29.947758
30.242801
27.716756
30.815601
29.071569
30.978918
31.119585
29.220581
##ZVALUE=250
1.432896
1.763701
1.638532
1.624823
1.917481
1.774430
2.574921
6.750822
27.753711
60.552955
157.060623
259.202719
381.322503
560.576916
679.450035
770.670772
760.867000
681.051612
574.751496
398.648977
266.638994
175.856948
110.244751
95.183849
105.021000
121.689439
139.202476
143.052936
137.506723
128.043890
110.152960
86.431503
62.812567
41.876435
30.951500
20.561814
18.072724
15.633702
16.002655
15.838742
15.972853
17.137527
16.350746
16.155839
15.900731
16.149879
16.053915
14.926791
13.900995
15.373826
14.530420
13.683438
13.359785
13.989806
13.293624
12.685657
13.045669
12.411475
13.316870
13.486743
13.497472
13.305545
14.190674
13.776422
14.235973
14.984608
14.705658
15.784502
17.296672
19.517541
20.071864
20.755529
20.898581
23.428798
24.516582
25.265813
24.720430
26.120543
24.707913
29.063821
26.826859
26.117563
26.485920
28.448701
27.101636
26.584864
27.151704
27.869940
29.538870
27.087927
30.348897
27.860999
29.416680
28.304458
29.479861
28.694868
##ZVALUE=255
1.498461
1.406670
1.654625
1.519918
1.414418
1.892447
1.758933
1.724958
2.142787
3.657937
17.646551
44.989586
122.123957
218.102932
392.379761
554.689765
777.011514
891.836882
947.350860
910.301805
785.802007
581.092834
411.918759
236.613750
152.987838
100.343823
95.285773
109.544992
130.467415
150.749683
154.805779
152.080655
141.518712
113.675594
96.337795
69.457889
52.672625
34.608841
28.702617
23.572445
22.307634
21.686554
20.394921
20.027757
19.656420
20.437837
19.149780
17.957687
16.359687
17.339587
16.846657
16.590953
16.422868
15.836954
15.839934
13.648868
13.551712
12.963414
12.843609
13.597608
13.266802
13.124943
14.240742
13.521910
14.094710
13.708472
14.954805
14.894605
16.103983
17.219782
17.425418
19.507408
21.128654
21.716952
22.583604
23.255944
23.127794
23.511648
24.467707
24.368763
24.755597
24.365783
25.522709
26.438832
25.763512
27.208924
27.045608
25.395751
26.917458
27.284622
25.933981
26.116967
25.949478
27.146935
27.143955
27.772784
##ZVALUE=260
1.707673
1.677871
1.479983
1.494884
1.572967
1.480579
1.827478
1.895428
2.171993
2.012849
2.386570
2.961755
7.909536
31.380653
70.092678
168.441534
284.176469
491.608977
662.655830
894.624591
1011.283994
1016.343832
1008.048654
877.974033
628.712773
445.314646
260.810852
161.669850
103.084445
96.293688
118.640661
141.693950
162.305832
174.224973
170.232654
153.574944
131.969452
101.260543
81.346631
57.674646
44.664741
34.967661
28.349757
26.250482
24.091601
23.453832
23.897886
23.121834
20.881891
20.441413
19.658804
18.895864
18.493533
17.519593
17.190576
15.971661
15.672445
14.771819
14.954805
14.601946
13.803840
14.087558
13.260841
14.071465
13.943911
13.889670
14.741421
14.712811
15.233755
15.547872
16.475916
17.681718
18.283725
19.551516
19.997954
19.977689
21.210909
21.784902
22.043586
21.981597
22.346973
22.038817
23.886561
24.020672
25.035739
24.882555
25.054812
24.470687
25.384426
25.933981
24.192929
26.411414
26.660562
25.665760
26.256442
27.180910
##ZVALUE=265
1.424551
1.423955
1.411438
1.638532
1.621842
1.645684
1.411438
1.493692
1.567602
1.764894
1.777411
2.157688
2.167821
2.466440
4.604459
23.387671
54.962635
137.742758
237.903595
434.216857
602.095723
763.594508
932.349563
972.797871
894.230604
786.168575
597.084761
433.305502
257.189870
169.734955
120.921731
94.551444
104.129910
134.662986
154.889822
177.215934
183.554888
176.218748
163.078904
131.371617
109.970570
80.416799
63.055754
42.723417
36.113858
29.207468
26.414990
25.002956
24.371743
22.756457
21.852851
20.260811
19.884706
18.284917
17.900467
17.337799
16.192794
15.851855
15.480518
14.841557
14.197826
13.740659
14.009476
14.284849
15.019774
15.124679
14.135838
14.322996
15.203953
16.217828
15.524626
16.970634
17.065406
19.021630
19.684434
19.316673
19.894838
19.296408
21.001697
21.055937
21.473765
20.853877
21.337867
22.409558
22.868514
22.093654
22.977591
23.940802
23.917556
23.632646
23.874640
24.346709
24.050474
23.902655
25.023818
24.924874
##ZVALUE=270
1.355410
1.136661
1.178980
1.163483
1.297593
1.304746
1.382828
1.219511
1.469851
1.629591
1.517534
1.571774
1.696944
1.725554
2.126694
2.128482
2.496839
10.444522
34.025908
121.295452
235.123634
409.114957
706.951618
927.767754
1016.140580
1016.140580
1016.140580
973.461866
724.926591
533.789992
322.262049
201.793909
128.125548
84.783435
85.715652
110.322833
134.270787
160.616636
176.274776
186.257958
178.679824
160.731673
137.155652
104.165673
82.266927
57.780743
44.415593
33.100843
29.335618
24.145842
21.196604
21.192431
19.634962
18.873811
18.074512
17.309785
16.726851
16.211867
14.636517
15.052557
14.429688
14.099479
12.997985
14.138818
13.548732
13.547540
14.058948
14.163852
14.938712
15.405416
15.426874
16.524792
17.304420
17.804503
18.857718
18.818974
18.993616
19.341707
20.105839
20.572543
20.463467
20.353794
20.913482
21.421909
20.766854
22.650957
22.003651
21.653771
21.650791
22.021532
23.201704
22.048950
23.161769
23.467541
22.923946
22.884607
##ZVALUE=275
1.311898
1.104474
1.153946
1.311898
1.069903
1.235604
1.421571
1.209974
1.290441
1.409650
1.550913
1.420975
1.444817
1.399517
1.592636
1.594424
1.735687
1.880527
1.975894
5.299449
17.412901
50.528646
164.438486
325.474739
624.607801
855.493546
1016.140580
1016.140580
1016.140580
1016.140580
1003.640890
735.251904
507.336855
266.391635
157.577991
85.354447
69.542527
79.749823
100.140572
131.669641
150.002837
172.126889
175.154805
169.318914
153.017640
124.576688
103.839636
75.545907
55.544972
38.715601
29.552579
22.487640
19.487739
17.631650
16.563535
15.990734
14.973879
15.269518
14.628768
14.044642
13.476610
13.218522
13.861656
13.809800
13.913512
14.037490
13.856888
14.450550
14.323592
14.865994
15.901923
16.963482
17.403960
18.528700
17.524958
18.820763
18.568635
19.197464
19.192696
20.015836
20.207763
20.592809
20.894408
20.079613
20.628572
20.955801
20.908713
21.233559
20.949841
21.181703
21.512508
20.993948
21.757483
22.552609
21.823645
21.401644
##ZVALUE=280
1.163483
0.924468
1.022816
1.155734
1.064539
1.089573
0.980496
1.202822
1.247525
1.293421
1.116991
1.098514
1.130700
1.181960
1.393557
1.485944
1.399517
1.460910
1.668930
1.855493
1.858473
2.403855
11.114478
35.490990
114.746690
211.285949
402.048826
585.405827
825.544000
973.376036
1016.140580
1016.140580
953.100920
725.815892
537.684560
306.650996
183.299780
88.576674
56.266785
53.829551
66.563487
94.329715
117.588639
142.161846
158.637762
163.753629
156.898499
137.709975
120.149851
90.384483
68.760514
45.876503
33.222437
21.896958
17.111897
14.553666
13.292432
13.185740
12.568831
12.417436
13.264418
12.808442
12.772679
13.132691
13.186932
13.475418
13.934970
14.424920
14.791489
14.657974
15.581846
15.913844
16.989708
17.206669
17.512441
18.473864
18.396974
18.850565
18.902421
19.122958
19.858479
19.675493
20.480752
20.024776
20.102859
20.639896
20.984411
20.931959
20.633936
20.465851
20.631552
20.163655
21.015406
20.754933
21.456480
20.383000
##ZVALUE=285
0.893474
0.945926
1.176596
1.035929
0.959635
1.100898
1.064539
1.143813
0.987649
0.962615
1.042485
1.090765
1.140833
1.177788
1.273751
1.196861
1.289845
1.207590
1.389980
1.614690
1.287460
1.600981
1.977682
1.975894
4.990697
16.253591
56.510568
120.946765
256.843567
415.447950
587.247610
817.027688
952.525735
1012.888551
960.997939
781.078935
611.336827
376.463532
234.628916
113.322735
61.869621
38.215518
40.397644
59.139729
80.414414
109.750628
127.610564
145.992637
153.310895
148.744583
135.132670
112.569928
91.401935
63.787699
46.284795
28.491616
20.843744
14.672875
12.551546
11.965632
11.279583
11.772513
11.816621
12.416840
12.418628
13.226867
13.424754
13.715625
14.760494
15.444756
15.703440
15.621781
16.198754
17.078519
17.837882
18.202662
18.712878
18.755794
18.920898
19.733906
19.853711
19.970536
20.220876
20.242929
20.446777
20.516515
20.921826
20.367503
20.810962
20.555854
20.918846
21.026731
21.086931
20.413995
20.903945
20.698905
##ZVALUE=290
0.960827
0.981688
0.807643
0.849962
1.035929
1.016855
0.872612
1.006722
0.908971
0.837445
1.065731
0.979900
1.094937
0.984669
0.906587
1.160502
1.166463
1.278520
1.220703
1.249909
1.218915
1.256466
1.430511
1.724958
1.724958
1.930594
2.319813
9.173751
27.567744
85.002780
163.491964
334.683657
502.933860
736.897588
882.568955
994.106531
986.824632
852.351785
693.932772
461.645722
306.467414
151.153803
81.014633
35.583973
27.899742
36.343932
52.065849
75.386763
95.714927
120.378733
135.894418
143.551826
142.404437
127.186775
109.640956
82.493424
62.281489
41.060448
29.218793
19.658804
15.322566
12.675524
12.220740
12.161732
12.792945
12.643933
13.432503
14.093518
14.187694
15.163422
15.700459
16.137958
16.686916
17.895699
18.198490
18.065572
19.084811
19.268990
19.168854
19.571781
19.768476
19.823909
19.248724
20.297766
20.791888
20.650625
20.319819
20.434856
21.275878
20.569563
20.959973
20.019412
20.352602
19.824505
19.073486
20.452738
##ZVALUE=295
0.832677
0.873804
1.059771
0.955462
0.954866
0.907779
0.896454
0.986457
1.046658
1.072884
0.897646
0.786781
0.938773
1.005530
0.983477
1.113415
1.051426
0.929832
1.139641
1.213551
1.287460
1.222491
1.172423
1.301765
1.357794
1.632571
1.804829
1.718998
2.169609
4.066825
21.029711
54.913759
115.911961
261.401534
412.669778
637.454987
799.169540
950.498581
987.246037
911.116600
785.382986
565.343499
391.412973
202.863812
113.462806
45.277476
24.787784
22.694468
31.003952
48.782825
65.823793
91.063976
110.997558
131.576657
138.742924
134.581923
123.981833
102.671981
83.404779
59.734583
43.675900
28.236508
20.754933
15.871525
13.702512
12.696981
13.186932
12.836456
13.896823
15.039444
15.700459
15.928745
17.322898
17.981529
17.871857
18.821955
18.856525
19.128919
20.435452
20.111799
20.409822
20.145774
20.748973
21.223426
21.045804
20.875931
21.029711
21.062493
20.674467
20.854473
21.103621
21.188855
20.525455
20.344853
19.915700
21.065474
##ZVALUE=300
0.765920
0.850558
0.818968
0.823736
0.847578
0.918508
0.828505
1.042485
0.973940
0.906587
0.972748
0.904799
0.946522
0.982881
1.002550
1.056790
0.969768
1.168847
1.229644
1.165867
1.081824
1.247525
1.236796
1.098514
1.231432
1.369715
1.444817
1.476407
1.615882
1.678467
1.896620
2.178550
5.543828
29.556751
72.147846
179.685950
309.212804
539.422631
720.797777
910.665989
992.694497
967.630744
864.835978
642.838478
471.302867
267.056823
158.079863
70.927739
34.614801
17.453432
18.408895
27.944446
40.518641
62.017441
82.209706
106.878877
121.240616
131.131411
130.212903
117.717981
103.516579
78.965425
61.968565
43.549538
31.842589
21.066666
17.143488
15.247464
14.584661
15.480518
15.656948
16.233921
16.667843
17.636418
18.444657
18.328428
18.889904
19.179583
19.911528
20.147562
20.433664
20.842552
21.464825
21.221638
21.476746
21.513700
21.340847
21.995902
21.142960
21.094680
20.603538
21.424890
20.911694
20.616651
20.857453
20.731688
##ZVALUE=305
0.866652
0.803471
0.802875
0.680685
0.759959
0.905991
0.821948
0.740886
0.901818
0.808835
0.859499
0.837445
0.953674
1.097918
0.888705
0.944734
0.824928
0.942945
1.044869
1.032948
1.163483
1.118779
1.044869
1.163483
1.223683
1.208782
1.268983
1.325607
1.419783
1.522899
1.654625
1.677871
1.608729
2.064705
3.251433
16.409755
46.113729
136.506557
261.279941
508.179665
715.088844
972.083807
1016.140580
1016.140580
993.013978
757.222772
573.008657
351.942778
215.421915
97.141862
47.994852
19.445419
14.174581
17.378926
25.599599
41.313767
58.348775
82.513690
99.459887
117.550492
124.719739
124.519467
115.716457
97.071528
81.523657
59.051514
44.746995
30.670762
23.629665
19.468665
16.967654
17.184615
17.551780
17.619729
18.281937
18.181801
18.897653
19.830465
20.419955
20.732880
21.038651
21.643639
21.541715
21.969676
22.545457
21.891594
22.342801
22.617579
22.497773
21.929741
22.167563
21.575689
21.488667
21.227598
21.529794
20.789504
##ZVALUE=310
0.905991
0.629425
0.769496
0.822544
0.766516
0.795722
0.817776
0.815988
0.784993
0.844598
0.851750
0.941753
0.891685
0.830889
0.982881
0.951886
0.994802
0.921488
1.001954
0.987649
1.095533
0.967979
1.188517
1.122952
1.042485
1.391768
1.102686
1.134872
1.205802
1.082420
1.303554
1.421571
1.483560
1.865625
1.783967
2.118945
2.174973
7.102489
22.912621
78.297853
160.753727
362.054706
592.800975
935.083032
1016.140580
1016.140580
1016.140580
1009.655595
815.647840
512.808561
325.752497
153.937936
81.176758
30.141473
15.074611
12.163520
16.023517
24.612546
34.668446
53.876638
71.955919
93.732476
107.815862
118.401647
120.659471
111.909509
98.711848
81.134439
63.185692
44.750571
35.033822
25.983453
22.482872
19.723773
19.627810
19.505620
19.745827
20.133853
20.535588
21.116734
21.433830
22.143722
22.649765
22.830963
22.708774
22.826791
23.230910
23.027658
23.058653
22.629499
22.992492
22.478700
22.472739
22.004843
21.875501
22.084713
##ZVALUE=315
0.789762
0.739694
0.632405
0.686646
0.774860
0.779629
0.849962
0.803471
0.783801
0.954866
0.934601
0.952482
0.929832
0.881553
0.935793
0.799894
0.843406
0.783801
0.873804
0.872612
0.903606
1.041889
1.080632
1.099706
1.035929
1.200438
1.125932
1.080632
1.164675
1.164675
1.048446
1.298785
1.337528
1.384616
1.532435
1.665950
1.735687
2.061725
2.148747
3.841519
12.264848
48.810840
107.093453
245.743990
422.268510
755.251646
992.767811
1016.143560
1016.143560
1016.143560
1016.143560
755.604506
503.073931
247.206688
125.546455
43.906569
19.560456
11.618733
12.118816
16.284585
22.489429
35.432577
48.331618
68.894625
86.455941
104.360580
112.752914
114.214420
108.854771
93.524456
79.910755
61.447620
47.857761
34.125447
27.957559
23.516417
21.363497
20.951629
21.166801
21.490455
21.612644
22.287965
22.599697
22.357702
23.169518
23.238659
23.249984
23.626685
23.616552
23.627877
22.855997
22.508502
22.752881
22.954941
22.635460
21.850467
##ZVALUE=320
0.788569
0.805855
0.862479
0.822544
0.773668
0.740886
0.723600
0.732541
0.788569
0.845790
0.873804
0.837445
0.707507
0.905991
0.918508
0.952482
0.919700
0.846982
1.019835
0.848770
0.960827
0.881553
0.943542
0.978708
0.753999
0.944734
1.214743
1.101494
0.960827
1.042485
1.110435
1.064539
1.193881
1.299977
1.280904
1.356602
1.558661
1.562834
1.604557
1.718998
1.843572
2.386570
5.756021
28.106570
68.653822
172.044635
291.047692
510.130525
721.462965
1004.071832
1016.140580
1016.140580
1016.140580
1002.798080
761.323571
413.102508
220.213532
81.925988
35.951734
13.708472
10.899901
12.227893
14.902949
21.918416
31.500459
48.346519
62.764883
82.775950
97.110868
108.265877
110.159516
104.049444
94.769001
76.236725
62.520504
45.669675
36.926866
29.143691
25.230646
23.094416
22.259951
21.898746
22.652745
23.200512
23.060441
23.090839
23.736954
23.685694
23.289919
23.354888
23.022890
22.838712
23.101568
22.875667
22.481680
22.317767
##ZVALUE=325
0.653863
0.763535
0.687838
0.832677
0.775456
1.012683
0.743866
0.753999
0.756979
0.769496
0.744462
0.744462
0.664592
0.774860
0.735521
0.719428
0.723600
0.743866
0.804663
0.821948
0.814795
0.930429
0.804663
0.935793
0.841618
0.967979
1.017451
0.922680
0.857711
0.922680
1.028776
1.089573
0.936985
1.103878
1.080632
1.166463
1.258850
1.164675
1.620650
1.545548
1.474619
1.508594
1.708865
1.828671
3.228784
17.223954
45.452714
119.843483
215.644836
400.413871
568.942428
805.603862
967.222452
1016.114950
1016.114950
981.198549
791.313648
505.244732
311.415792
134.881735
62.313676
20.372868
11.781454
11.055470
11.824965
15.876889
21.316409
32.583475
45.360923
66.164732
79.989433
96.565485
103.732944
105.884671
100.260973
87.128878
75.043440
58.876872
47.637820
35.263896
29.384494
25.100708
23.538470
23.293495
23.277998
22.958517
22.680759
23.061633
23.316741
22.962689
22.759438
23.082495
23.033619
22.605658
22.601485
22.614598
##ZVALUE=330
0.706911
0.633597
0.685453
0.746846
0.669956
0.777841
0.636578
0.778437
0.697970
0.771880
0.718832
0.807643
0.849962
0.726581
0.703931
0.748634
0.717640
0.748634
0.864863
0.837445
0.761747
0.934601
0.866652
0.904799
0.919700
0.788569
0.992417
0.890493
0.930429
0.936985
0.960827
0.974536
0.973940
0.740886
1.006722
0.937581
1.092553
0.957847
1.287460
1.022816
1.455545
1.228452
1.340508
1.516938
1.625419
1.848936
2.253652
6.189942
28.126836
70.084929
172.224641
287.042856
485.747457
637.068748
803.452730
876.778960
864.494443
771.037936
594.491959
444.435477
254.021883
150.886774
64.761639
30.695796
12.859702
10.328889
10.894537
12.196898
16.274452
22.163987
33.312440
44.477582
62.000751
76.584816
91.249943
97.839832
99.868774
95.238686
84.155798
71.952939
57.006478
46.389699
36.310554
30.609965
26.020408
24.288893
23.210645
22.830963
22.687912
22.931695
22.531748
22.411942
22.497773
22.348762
22.188425
21.584630
##ZVALUE=335
0.683665
0.638962
0.602603
0.598431
0.661612
0.688434
0.633597
0.657439
0.763535
0.796914
0.682473
0.888705
0.806451
0.853539
0.752807
0.760555
0.804663
0.778437
0.690818
0.736713
0.788569
0.717640
0.838637
0.705719
0.622869
0.877976
0.610948
0.691414
0.759959
0.977516
0.984669
0.953674
0.858903
0.838637
0.676513
0.833869
0.901818
0.957847
0.911951
1.034737
0.985861
1.255870
1.109838
1.111627
1.342893
1.350641
1.418591
1.470447
1.817942
3.413558
17.585754
45.317411
121.588707
216.324925
387.860537
542.889833
735.054016
821.601748
848.895907
795.535445
634.765625
484.109521
289.335847
173.280835
74.901581
37.123561
15.208721
10.967851
11.031628
11.401772
13.969541
16.217828
22.591949
29.872656
44.844747
56.892633
73.752999
85.113645
96.011758
96.118450
91.670752
82.202554
69.738626
58.486462
45.168996
37.737489
30.001998
26.228428
23.937821
22.125840
21.953583
21.637678
21.950603
21.523833
21.498799
21.502972
##ZVALUE=340
0.649691
0.661612
0.729561
0.696778
0.679493
0.694990
0.808835
0.686646
0.669956
0.770688
0.606775
0.684857
0.650883
0.737906
0.745654
0.778437
0.766516
0.847578
0.683665
0.736713
0.820756
0.936985
0.836849
0.740886
0.602603
0.884533
0.707507
0.724792
0.884533
0.805855
0.831485
0.840425
0.653863
0.933409
0.930429
0.990629
0.991821
0.960827
1.000762
0.930429
0.991821
0.904799
1.158714
1.057982
1.164675
1.245737
1.328588
1.276731
1.357794
1.371503
1.697540
2.428889
7.197857
34.253597
81.656575
194.457769
316.393971
506.547689
652.369857
811.839700
877.309442
855.607986
763.421655
572.081804
405.957699
211.141706
117.842555
47.329664
22.312999
11.892915
11.092424
11.593699
12.354851
13.983846
16.784668
23.337603
30.826926
43.784976
56.036711
73.535442
81.869960
89.902878
91.564655
86.386800
79.294443
67.001581
56.186914
44.946671
36.658645
29.452443
25.628805
22.552609
21.932721
20.819902
20.698905
20.897985
##ZVALUE=345
0.640750
0.887513
0.692606
0.776649
0.687838
0.597835
0.539422
0.744462
0.746846
0.696778
0.738502
0.854731
0.636578
0.769496
0.727773
0.627637
0.675917
0.656843
0.674725
0.778437
0.749826
0.647902
0.714660
0.798702
0.805855
0.782609
0.853539
0.753999
0.781417
0.839829
0.797510
0.868440
0.730753
0.847578
0.807643
0.846982
1.002550
0.908971
0.911951
0.924468
1.005530
0.907779
1.032948
0.986457
0.950694
1.167655
1.190901
1.315475
1.115799
1.271963
1.330972
1.456738
1.561642
1.750588
3.506541
19.217730
53.204894
139.525533
242.368579
430.500507
597.049594
850.992799
1001.033783
1016.138792
1016.138792
842.497945
619.660020
345.518589
184.285641
68.033934
31.652451
14.103651
11.508465
11.633635
12.190938
13.071895
13.845563
17.054677
21.417737
30.438900
40.077567
54.700971
65.158606
76.803565
82.392693
86.119771
81.674457
74.572563
66.182613
53.116679
44.128895
34.028888
28.938651
23.626685
21.939874
20.325780
##ZVALUE=350
0.638962
0.391603
0.627637
0.493526
0.657439
0.692606
0.610948
0.552535
0.594854
0.560880
0.752807
0.804663
0.659823
0.658631
0.638962
0.539422
0.552535
0.715852
0.786781
0.743866
0.702739
0.814795
0.768900
0.637770
0.748634
0.758767
0.751615
0.777841
0.833869
0.861883
0.696778
0.779629
0.861883
0.816584
0.700951
0.735521
0.946522
0.816584
0.921488
0.707507
0.951886
0.879765
0.998974
0.860691
0.938773
0.913739
0.964999
1.195669
1.023412
1.186728
1.235604
1.506805
1.324415
1.376867
1.280904
1.761913
2.176762
9.959936
30.170679
94.801784
180.473924
354.067683
511.333942
736.608505
909.226537
1016.115546
1016.115546
961.614847
761.795640
446.456671
261.643529
110.872984
49.165487
16.857982
11.690855
11.309981
11.497736
11.776686
12.347698
13.839602
16.103983
21.631718
26.940703
37.118793
46.080947
58.895946
67.869425
75.934529
78.464746
75.735450
70.908666
59.720874
51.187873
40.188432
33.278465
26.905537
##ZVALUE=355
0.714660
0.510812
0.515580
0.746846
0.698566
0.687838
0.706911
0.536442
0.850558
0.772476
0.623465
0.589490
0.764728
0.691414
0.770688
0.704527
0.803471
0.705719
0.604987
0.764728
0.727773
0.692606
0.800490
0.725985
0.647902
0.810623
0.730753
0.673532
0.882745
0.717640
0.888705
0.906587
0.791550
0.789762
0.695586
0.788569
0.781417
0.868440
0.774860
0.770688
0.946522
0.862479
0.965595
1.021624
0.971556
0.892878
0.947714
1.071692
1.069903
1.146793
1.201630
1.199841
1.136661
1.168847
1.284480
1.408458
1.462698
1.434684
1.802444
5.120635
18.628836
67.629814
132.677555
267.128944
406.231880
611.701608
757.420659
906.735659
936.995745
870.832801
748.535991
524.248481
341.794491
153.089762
72.410703
22.401810
12.235641
10.557771
10.796785
10.887980
11.074543
12.123585
13.483763
15.714765
19.127727
25.018454
31.988621
40.944815
50.737858
61.208606
66.810846
70.764422
69.581866
63.893795
58.055520
47.926903
##ZVALUE=360
0.665784
0.485778
0.645518
0.628829
0.799894
0.840425
0.726581
0.581741
0.450611
0.686646
0.749826
0.731945
0.741482
0.741482
0.745654
0.582933
0.605583
0.712872
0.734925
0.726581
0.680685
0.831485
0.730753
0.798702
0.713468
0.752807
0.813603
0.714660
0.784993
0.812411
0.632405
0.640750
0.767708
0.798702
0.774860
0.803471
0.902414
0.914931
0.767708
0.886917
0.894666
0.855923
0.983477
1.031756
0.954866
0.961423
1.021624
1.003742
0.848770
1.036525
1.190901
1.198649
1.109838
1.131892
1.346469
1.196861
1.489520
1.338720
1.275539
1.707673
1.714826
2.564788
8.856654
39.190650
88.170767
201.097727
319.472551
501.978993
639.408827
771.860480
808.413029
765.399933
667.549968
484.395623
342.323780
178.622603
97.377896
37.031770
16.256571
9.952784
9.922981
10.312796
10.320544
10.564923
10.974407
11.838675
13.381839
16.301870
20.002723
26.985407
33.970475
44.884682
52.076578
60.892701
63.617826
63.588619
##ZVALUE=365
0.566840
0.565648
0.588894
0.568628
0.575781
0.664592
0.695586
0.707507
0.846982
0.663996
0.695586
0.684857
0.729561
0.740886
0.722408
0.631809
0.710487
0.753999
0.665784
0.684857
0.808835
0.840425
0.707507
0.782609
0.690818
0.685453
0.756979
0.589490
0.800490
0.740886
0.700951
0.927448
0.836849
0.889897
0.798702
0.741482
0.789762
0.840425
0.828505
0.679493
0.738502
0.844598
0.905991
0.871420
0.953674
0.843406
0.911951
0.955462
0.862479
0.905991
0.971556
0.876784
1.117587
1.067519
1.140833
0.888705
1.013875
0.931621
1.135468
1.394749
1.348853
1.529455
1.577735
2.012849
3.650784
20.655990
58.267713
151.625872
262.087584
443.180799
580.452681
726.058483
776.941776
743.800998
643.533468
469.907522
333.640575
186.177492
105.913877
42.140484
19.993782
10.107756
9.046793
9.051561
9.157658
9.379983
9.505749
9.996891
10.278821
11.896491
13.620853
17.805696
22.237897
30.126572
36.670566
46.497583
##ZVALUE=370
0.552535
0.729561
0.627637
0.663996
0.347495
0.678897
0.758767
0.667572
0.667572
0.758767
0.617504
0.740886
0.732541
0.710487
0.673532
0.677705
0.687838
0.654459
0.631809
0.488758
0.684857
0.763535
0.706911
0.750422
0.594854
0.418425
0.649691
0.807643
0.798702
0.769496
0.594854
0.636578
0.719428
0.715852
0.784993
0.779629
0.788569
0.959635
0.768900
0.803471
0.846982
0.743866
0.769496
0.703931
0.864863
0.815988
0.829697
0.764728
0.800490
0.972748
0.945926
0.852942
0.884533
0.895858
0.855923
0.974536
0.916719
1.022816
1.099706
1.101494
1.136661
1.355410
1.266599
1.573563
1.381636
1.788735
2.308488
9.793639
34.859776
113.107562
207.598805
380.272865
541.093946
723.932981
799.164772
793.977976
709.404945
544.147491
396.692753
215.608478
121.222734
49.997568
24.664998
11.445880
8.565784
8.275509
8.369684
8.419752
8.697510
9.096861
9.220839
9.561777
10.696650
12.906790
15.760660
20.687580
##ZVALUE=375
0.979900
0.789762
0.808835
0.955462
0.776649
1.019835
0.978708
0.806451
0.776649
0.739694
0.846982
0.800490
0.901818
0.794530
0.957847
0.982881
0.946522
0.785589
1.004934
0.924468
0.840425
0.897646
0.848770
0.761747
0.891685
0.899434
0.891685
1.017451
0.863671
0.940561
0.896454
0.938773
0.817776
0.900626
1.044869
0.915527
1.000762
1.011491
1.097918
0.993609
0.958443
0.951886
0.988841
1.121759
1.053810
1.316667
1.046658
1.154542
0.988841
1.027584
1.147985
1.195669
1.003742
1.128912
1.207590
1.239777
0.998974
1.108646
1.203418
1.273751
1.238585
1.328588
1.425743
1.342893
1.563430
1.577735
1.718998
1.672506
2.254844
4.935861
25.499463
62.617660
162.036419
282.805562
490.946770
647.796988
807.284713
859.652758
799.111724
675.082803
460.432768
318.073630
175.471902
98.159909
40.158629
18.475652
9.015799
8.019805
8.033514
8.050799
8.154511
8.323789
8.756518
8.983612
8.972883
9.913445
##ZVALUE=380
0.599623
0.556707
0.441670
0.522733
0.525713
0.706911
0.623465
0.502467
0.553727
0.662804
0.656843
0.549555
0.599623
0.587702
0.599623
0.453591
0.659823
0.646710
0.662804
0.698566
0.702739
0.523925
0.689626
0.576973
0.674725
0.555515
0.582933
0.902414
0.721812
0.650883
0.617504
0.770688
0.691414
0.832677
0.682473
0.771880
0.594854
0.790954
0.696778
0.614524
0.736713
0.761747
0.805855
0.718832
0.737906
0.740886
0.798702
0.767708
0.722408
0.627637
0.855923
0.921488
0.860691
0.821948
0.795722
0.709891
0.753999
0.932813
0.956655
0.833869
0.800490
1.029968
1.095533
1.196861
1.194477
1.292825
1.215935
1.315475
1.381636
1.471639
1.953840
2.807975
10.615587
48.325658
107.335448
245.542526
385.233760
590.830445
733.328462
844.398737
837.326646
709.843636
574.182868
392.685533
257.573724
125.484467
65.721869
24.524927
11.986494
7.461905
7.318854
7.142425
7.110834
7.483959
7.663965
7.861853
##ZVALUE=385
0.680685
0.531673
0.573993
0.619888
0.587702
0.613928
0.534654
0.630617
0.614524
0.586510
0.674725
0.480413
0.500679
0.619888
0.598431
0.563860
0.641942
0.597835
0.676513
0.700951
0.730753
0.646710
0.644922
0.638962
0.648499
0.548959
0.676513
0.718832
0.753999
0.697970
0.774860
0.731945
0.731945
0.734925
0.794530
0.677705
0.872612
0.641942
0.756979
0.626445
0.803471
0.697970
0.790954
0.700951
0.713468
0.888705
0.667572
0.893474
0.696778
0.808835
0.922680
0.846982
0.955462
0.804663
0.905991
0.674725
0.827909
0.785589
0.728965
0.806451
0.706911
0.793934
0.933409
0.914931
1.023412
1.117587
1.143813
1.228452
1.250505
1.522899
1.456738
1.425743
1.576543
1.903772
4.673600
25.522709
66.173673
164.635777
286.316872
494.985580
651.414990
802.412629
840.400457
792.730451
689.456463
490.918756
339.264870
179.898739
100.171566
40.989518
18.169880
7.974505
6.559491
6.600618
6.493926
6.643534
##ZVALUE=390
0.512600
0.655651
0.584722
0.538826
0.620484
0.598431
0.654459
0.762939
0.677705
0.673532
0.413656
0.641942
0.673532
0.464916
0.662804
0.528693
0.519753
0.640750
0.652671
0.750422
0.582933
0.660419
0.638962
0.714660
0.635982
0.624657
0.570416
0.639558
0.743866
0.694990
0.591874
0.632405
0.586510
0.716448
0.740886
0.688434
0.764728
0.771880
0.758767
0.612736
0.785589
0.714660
0.648499
0.750422
0.760555
0.734925
0.828505
0.658631
0.795722
0.562668
0.729561
0.580549
0.730753
0.860691
0.775456
0.748634
0.805855
0.774860
0.956655
0.888705
0.792742
0.855923
0.822544
1.081824
0.997782
1.074672
1.009703
1.242757
1.100898
1.200438
1.254678
1.414418
1.375675
1.588464
1.595616
1.578927
2.399683
11.902452
36.202669
109.769702
206.115842
387.290716
531.503558
706.267953
797.096491
819.098949
750.813484
586.629510
443.931818
264.408588
150.491595
60.474873
28.953552
10.929704
6.774664
6.176829
##ZVALUE=395
0.631809
0.473857
0.518560
0.670552
0.574589
0.704527
0.746846
0.621676
0.649691
0.514984
0.623465
0.614524
0.656843
0.501871
0.630617
0.574589
0.542998
0.438690
0.507832
0.624657
0.658631
0.601411
0.749826
0.540614
0.588894
0.630617
0.655651
0.634789
0.833869
0.709891
0.650883
0.581741
0.803471
0.761747
0.702739
0.623465
0.772476
0.867844
0.591874
0.629425
0.649691
0.882745
0.626445
0.920892
0.679493
0.669956
0.799894
0.757575
0.689626
0.861883
0.866652
0.773668
0.746846
0.694990
0.624657
0.782609
0.741482
0.934601
0.843406
0.924468
0.782609
0.811815
0.997782
0.896454
0.914931
0.970960
1.122952
1.039505
1.116991
1.005530
1.180768
1.236796
1.330972
1.159906
1.199841
1.227856
1.356602
1.397729
1.791716
6.483793
23.514628
80.302954
149.778724
283.700824
419.216752
609.214902
725.084543
801.619887
785.150528
671.002865
527.609587
322.747827
196.924806
84.575415
39.990544
14.413595
##ZVALUE=400
0.657439
0.655651
0.583529
0.718832
0.578761
0.559688
0.630617
0.632405
0.625849
0.606775
0.545979
0.739694
0.439882
0.513792
0.656843
0.554919
0.607967
0.576973
0.560880
0.472665
0.590682
0.673532
0.591874
0.636578
0.668764
0.664592
0.600815
0.556707
0.660419
0.676513
0.786781
0.816584
0.624657
0.902414
0.817776
0.751615
0.761747
0.787973
0.779629
0.552535
0.643730
0.795722
0.773668
0.800490
0.736713
0.783801
0.842810
0.788569
0.834465
0.690818
0.889897
0.693798
0.815988
0.798702
0.714660
0.856519
0.748634
0.802875
0.632405
0.878572
0.818968
0.763535
0.785589
0.781417
0.804663
0.917912
0.851750
1.066923
1.090765
1.014471
1.078844
1.045465
1.124740
1.022816
1.162887
1.170635
1.151562
1.144409
1.247525
1.537800
1.460910
3.669858
12.133718
43.297410
94.112754
209.753513
334.938765
514.248013
641.492605
755.323768
775.928497
700.082779
585.626960
395.249724
259.159803
127.561688
##END
