##TITLE=FQP00651
##FORMAT=SPECTACLE-ASCII V-1.2
##DATA TYPE=ULTRAVIOLET SPECTRUM
##SECOND TYPE=ULTRAVIOLET SPECTRUM
##DATE=03/05/18
##TIME=12:43:45
##SPECTROMETER/DATA SYSTEM=SPECTACLE
##XUNITS=NM EM
##YUNITS=ENERGY
##YFACTOR=1
##FIRSTX=220
##LASTX=410
##NPOINTS=96
##3DDATA=Equidistant
##ZUNITS=NM EX
##FIRSTZ=210
##LASTZ=400
##ZPOINTS=39
##XYDATA=(Y..Y)
##ZVALUE=210
2.724528
2.226830
2.328753
2.050996
2.478957
2.491474
2.259612
2.313852
2.916455
2.321601
2.339482
2.196431
2.368689
2.308488
2.211928
2.422929
2.336502
2.567768
2.164841
2.705455
3.330708
3.338456
3.068447
3.168583
2.861619
3.156662
2.973676
4.017949
4.230738
3.899932
3.617406
4.329681
4.558563
4.981756
5.246997
5.015731
4.037619
4.783869
4.246831
5.225539
4.578829
4.664660
4.238486
4.585981
4.227757
4.479885
4.951954
5.429983
3.832579
4.054904
5.197525
4.529953
4.155636
4.473925
4.409552
4.803538
4.871488
4.607439
4.324913
5.007982
4.745722
5.382895
5.119443
5.356669
4.792809
4.725456
4.915595
5.305409
5.859733
6.742477
7.474422
9.721518
9.669662
11.161566
11.808872
12.915730
12.106895
12.213588
12.146831
11.119843
11.123419
10.990500
9.900928
9.100437
7.622838
5.845428
5.994439
4.704595
5.212426
4.125834
4.765987
4.582405
4.886985
5.448461
4.442930
5.682707
##ZVALUE=215
5.961657
5.145669
4.780889
4.762411
4.620552
4.103780
4.637837
4.506707
4.069805
4.740953
4.835725
4.641414
3.368855
3.532767
3.044605
3.083944
2.414584
2.688766
2.720952
3.056526
3.086925
3.335476
3.227592
2.926588
3.245473
3.657937
3.748536
3.507733
4.783869
4.417896
5.541444
5.253553
5.532503
5.568862
5.251765
5.016923
6.021857
5.403757
6.227493
6.044507
6.036758
6.304979
4.590750
5.434752
5.543828
5.053878
5.626678
5.590916
5.294681
5.055666
4.271865
4.250407
5.351901
4.632473
4.510880
4.946589
4.957914
4.622936
5.149841
4.629493
4.643798
5.090833
4.634857
5.603433
5.183816
5.586743
5.435944
6.345510
6.500483
7.824898
7.748604
9.233952
10.889769
11.583567
12.114644
12.017488
12.631416
12.497902
12.013912
11.499524
10.128617
10.333657
10.096431
9.311438
7.833838
5.713701
6.057620
5.529523
4.483461
5.479455
5.182624
4.246831
4.533529
5.470514
4.154444
4.938841
##ZVALUE=220
19.066930
20.200610
21.506548
19.845963
19.296408
16.731620
13.919473
13.179779
10.743737
11.669993
11.398792
11.175871
10.179877
11.677742
9.499788
8.105636
5.138516
4.907846
3.491640
3.579855
3.470778
3.726482
3.263950
3.250837
4.340410
5.179644
5.156994
5.485415
6.513000
7.084608
7.894635
7.027984
7.263422
7.178783
9.124875
8.588433
8.833408
8.414984
7.422566
8.308887
8.303523
7.667542
8.200407
7.269979
7.069707
6.577969
7.237792
5.769730
6.433725
5.618930
6.507635
6.375909
5.707741
6.202459
6.103516
6.079674
6.018877
6.127954
6.829500
5.987883
6.801486
6.656647
5.956888
6.111860
5.968809
6.524920
6.806850
6.730556
8.085966
8.529425
9.068847
10.555983
10.743737
11.606812
12.465715
13.090968
12.480617
12.574792
11.597872
12.007952
12.194514
9.791851
10.659695
8.783937
7.637739
7.187724
6.711483
5.291700
5.851984
5.700588
6.208420
5.700588
5.989671
5.343556
5.181432
5.195737
##ZVALUE=225
34.531951
34.348965
48.646927
58.975816
65.354705
60.816407
58.202744
48.918724
36.148429
28.433800
23.920536
21.809936
22.606850
26.795864
25.298595
25.021434
21.265745
16.855597
12.539625
8.503795
6.444454
4.860759
3.965497
3.837943
4.318953
5.346537
6.090999
7.695556
7.415414
8.249879
8.085966
10.378957
10.531545
10.771751
10.306835
10.519624
10.910630
10.593534
9.982586
9.363890
9.808540
8.890629
9.967685
8.559823
9.174943
7.967949
8.808970
7.941723
7.262826
8.494854
7.760525
7.636547
7.483959
7.656813
6.549954
7.624626
7.178783
7.100701
7.999539
8.051991
6.536841
7.892847
7.566810
7.674694
8.658767
8.058548
7.774830
8.945465
8.296967
10.290742
10.311604
12.492537
12.042522
11.886954
13.287663
13.001561
12.688637
13.699532
13.135672
12.354851
10.661483
10.313988
9.573698
9.519458
9.861588
8.839965
7.840991
9.229779
8.511543
7.152557
7.419586
6.993413
7.374883
6.362796
6.358624
6.645918
##ZVALUE=230
29.664636
34.540892
53.768754
91.524720
123.402476
150.313973
160.453916
154.295564
135.064721
116.944909
78.620911
60.005784
45.405626
42.899847
46.919584
46.575665
51.058531
51.634908
46.170950
35.682917
27.836561
18.735528
12.383461
7.587671
5.829930
5.147457
5.271435
6.907582
7.153749
8.835793
8.665919
10.707974
9.638667
10.942817
11.372566
10.003448
10.259748
10.726452
10.248423
11.067986
10.203719
9.664893
10.324717
9.977818
9.148717
8.037686
9.525418
8.027554
8.803606
7.512569
8.220673
9.436607
8.713603
8.712411
9.268522
10.021925
9.006858
10.099411
9.090900
10.427833
9.465814
10.764599
10.349751
11.277795
11.021495
10.807514
11.786819
11.725426
12.892485
13.650656
13.262630
14.399886
15.073419
14.470816
15.967488
16.666651
15.962720
16.574860
16.268492
16.253591
15.245676
14.999509
13.708472
13.374686
12.582541
11.409521
10.923743
11.432767
11.526942
11.249781
10.438561
11.225939
10.987520
9.782910
10.256767
10.469556
##ZVALUE=235
10.680556
12.568831
32.036901
58.517456
115.520954
169.556737
238.735676
290.198922
326.167941
325.306654
276.698470
227.502584
178.354979
115.892887
89.120865
68.581700
69.665909
77.428818
84.596872
83.126426
81.268549
68.740845
53.385496
37.818551
23.962855
17.092824
10.286570
8.218884
8.358955
8.211732
8.083582
8.352995
8.613467
8.990765
8.626580
8.806586
9.926558
8.800626
9.956956
8.657575
9.283423
10.283589
8.284450
9.291768
8.682609
8.729696
9.113550
10.351539
9.312630
9.492636
10.070801
10.407567
10.473728
11.408925
12.286901
9.942651
11.123419
11.680722
12.408495
12.498498
13.140440
14.041662
14.046431
13.648868
13.424754
14.821887
14.854670
15.172958
16.733408
15.338659
16.137958
19.292831
20.061731
19.352436
20.151734
22.439957
22.277832
21.189451
21.836758
19.039512
20.613670
19.862652
15.525818
18.839836
19.233823
16.986728
16.462803
16.074777
16.025901
14.692545
14.653802
14.716983
15.540719
15.149713
16.085505
17.156601
##ZVALUE=240
1.371503
1.277924
3.703833
14.361739
30.343533
72.152615
126.583576
232.249498
321.829915
436.983705
483.354926
493.873954
460.844636
372.032523
295.926929
217.357874
139.253736
106.678605
92.053413
96.554756
109.388828
113.777518
109.606981
100.570917
78.770518
63.552856
48.094988
30.339956
18.962622
12.588501
9.480715
8.061528
7.482767
6.844997
7.663965
8.326769
8.170605
8.522868
8.523464
7.832646
7.506609
8.808970
9.274483
8.813739
8.589625
8.151531
8.070469
9.530783
9.299517
10.116696
9.966493
10.143518
10.393858
11.885762
11.231899
12.098551
12.043715
14.242530
13.774633
14.280677
14.634728
15.374422
14.098883
15.029907
15.657544
17.020702
16.621947
17.108917
18.345714
19.213557
20.906925
22.353530
20.948648
23.009777
23.265481
22.519827
24.391413
24.103522
24.748445
24.798512
23.660660
23.683906
23.382902
23.193955
21.889806
20.761490
20.682812
18.664598
19.630790
18.926859
19.277930
17.796755
18.246770
18.035769
17.505884
17.921925
##ZVALUE=245
1.228452
1.190901
1.228452
1.303554
2.426505
10.268688
25.194883
69.831610
125.191808
231.366754
340.800881
475.672483
555.621982
606.795549
577.454567
503.402948
419.929624
277.403593
202.082992
125.943422
100.028515
97.715855
112.205744
119.995475
132.073760
122.681856
106.498599
91.788769
66.065788
52.098632
31.576753
20.966530
14.425516
8.428693
7.253885
7.901788
7.768869
7.939935
7.880926
8.224845
7.853508
9.190440
8.180737
8.667707
9.083748
8.829832
9.832978
8.470416
9.358525
11.025667
9.736419
10.515451
9.376407
10.604858
10.967851
11.205673
10.623932
11.999607
12.946725
12.394786
13.237596
13.021827
12.882948
12.912750
14.215708
14.819503
15.444756
16.402602
15.745759
17.037988
17.626882
18.217564
19.445419
20.395517
21.383762
22.400618
21.292567
21.618605
22.385716
20.165443
20.482540
20.316839
19.942522
20.945668
20.026565
19.004941
18.354654
20.242929
17.370582
19.636750
20.531416
20.899773
18.387437
19.003749
18.805861
19.134879
##ZVALUE=250
1.302958
1.307726
1.362562
1.299977
1.285672
1.688600
1.925826
6.160736
25.008917
52.427649
131.155849
219.727755
330.676436
489.839911
593.917966
672.503710
679.314733
590.492487
501.791835
348.020792
237.622857
155.324936
94.598532
88.712573
106.295943
118.028522
132.972598
135.569572
130.321980
117.889643
104.627609
77.999830
55.485964
35.694838
24.128556
14.774799
11.743903
8.940697
8.708835
9.321570
8.703470
8.713603
9.203553
8.884668
9.264946
9.318590
8.951426
8.750558
8.275509
9.143949
9.684563
9.924769
10.162592
10.044575
10.728836
10.425448
10.699630
10.818839
10.913610
11.139512
11.172891
11.164546
11.241436
12.507439
12.785792
12.931824
13.194680
13.426542
14.062524
15.452504
15.944839
17.189980
18.703938
18.361807
18.986464
19.284487
19.479990
20.643473
20.443797
20.196438
21.365881
18.261671
18.703938
19.358993
18.726587
19.483566
18.078685
18.550754
18.657446
18.582940
17.925501
18.387437
18.117428
18.295646
17.979741
18.845797
##ZVALUE=255
1.329780
1.273751
1.152754
1.306534
1.468658
1.462698
1.339912
1.363754
1.863837
3.743768
15.997887
39.769411
82.085729
178.965926
292.213559
480.844975
621.400476
759.984851
812.876821
769.182444
663.886666
522.157550
329.328775
209.563971
114.702582
87.304711
86.809993
100.779533
123.626590
136.576891
142.481923
143.416524
130.296946
107.253790
82.449913
56.267977
39.966702
23.130774
16.916990
12.146831
10.770559
9.939671
8.727908
9.774566
9.424686
9.412766
10.127425
9.565949
9.993911
9.183884
9.541512
9.418726
10.081530
9.643435
10.294914
9.659529
9.250641
9.801984
9.669662
9.656549
9.755492
9.796619
10.381937
10.119677
10.433793
10.935664
10.679960
12.336969
12.208819
13.153553
12.673736
14.886856
14.387965
15.791655
15.728474
15.866756
16.036630
17.146468
17.848611
17.256737
17.822981
18.128753
17.671585
17.335415
18.083453
17.399788
17.465949
16.834736
15.629530
17.056465
17.703772
16.525984
17.901659
17.495751
16.687512
17.995834
##ZVALUE=260
0.836849
1.326799
1.176596
1.174808
1.080632
1.193881
1.392961
1.160502
1.327991
1.575947
1.719594
2.217889
6.233454
23.297668
53.208470
132.114887
223.081708
375.234485
509.963632
674.365759
753.462911
758.006573
669.883490
550.277829
361.594558
246.406794
145.966411
97.658634
76.594949
82.607865
108.937621
127.533674
143.560767
155.410767
149.105787
132.015944
115.103722
84.321499
62.720776
39.887428
27.312636
17.579794
13.676882
11.366606
9.833574
9.820461
9.742975
10.034442
9.140968
9.678602
8.809566
9.268522
9.062886
9.157658
8.817911
9.733438
8.741617
9.192824
8.936524
9.127855
8.474588
8.872747
8.834600
9.238720
10.099411
9.456873
10.393858
9.783506
10.755658
11.739731
11.874437
11.997819
12.787580
14.110804
12.847781
13.560653
13.563633
14.205575
14.567971
15.021563
14.432669
14.216900
15.150905
14.945865
14.787912
14.784932
15.026927
15.614629
16.021729
15.805960
15.754700
15.929937
14.802814
15.513897
15.636683
15.822649
##ZVALUE=265
1.001954
1.103878
1.215935
1.036525
1.149774
1.160502
1.123548
1.264811
1.294613
1.346469
1.212955
1.518726
1.436472
1.697540
3.663898
13.083816
45.401454
92.313886
168.131590
325.693488
476.290584
671.277642
777.392983
816.421509
763.318539
614.550710
484.908819
312.127471
203.874707
109.632611
78.036785
70.433617
84.684491
114.490986
134.863853
152.065754
157.980919
149.596930
134.625435
109.539628
88.054538
59.088469
42.848587
26.813745
18.136501
12.658834
11.114478
10.564923
10.068417
9.751916
10.214448
9.920597
9.869933
9.765625
10.002851
9.468794
9.329915
9.665489
9.697676
9.570718
9.714961
9.634495
9.818673
9.866953
9.640455
9.944439
9.875894
10.735989
10.289550
10.581613
11.455417
11.581779
12.328625
12.999773
12.361407
13.576746
13.777614
14.060736
13.859868
14.038682
14.289618
14.290810
13.681650
13.872981
13.974905
14.718771
14.654994
14.428496
14.217496
14.755726
14.771819
14.914870
15.178919
14.862418
15.330911
15.283823
##ZVALUE=270
0.992417
0.980496
1.056790
1.053810
1.052618
1.200438
1.152754
1.303554
1.262426
1.201630
1.261830
1.216531
1.341701
1.592636
1.457930
1.609921
2.326965
6.997585
30.071735
65.581799
150.605440
259.357691
452.668667
592.948794
747.858882
811.807513
803.806782
728.780031
569.388866
430.344939
261.597633
157.822967
95.223784
62.913895
65.278411
89.634657
110.693574
136.864781
152.320862
156.782866
153.352618
134.617686
112.251639
82.324743
62.346458
39.260983
27.520657
17.593503
14.003515
10.774732
10.407567
9.922981
9.744763
10.060668
9.721518
10.308623
10.382533
10.279417
10.104775
10.243654
10.549426
10.146499
10.771751
10.387897
11.305809
10.657907
10.178685
11.142492
11.611581
11.272430
12.006760
12.316704
11.636615
12.835860
13.094544
13.306737
13.087988
13.822913
13.243556
13.454556
14.104843
13.967752
14.197826
13.670921
13.986826
13.339520
13.933778
14.195442
13.805628
14.214516
14.482737
13.716817
14.284849
13.820529
14.759898
15.077591
##ZVALUE=275
0.798702
0.795722
0.939965
0.954866
0.970960
0.849962
0.982881
0.934601
1.046658
0.980496
0.966787
1.233816
1.178980
1.133680
1.258850
1.338720
1.620650
1.549721
1.432896
7.085800
24.882555
60.169697
146.327615
248.259902
416.374803
539.286733
672.795773
756.834745
793.232918
746.223927
658.555031
485.238433
345.823765
191.450715
116.950870
59.450865
48.631430
61.797500
79.731941
109.976530
129.099488
147.823691
153.896809
148.030519
134.047866
103.760958
83.878636
59.691668
42.187572
26.153922
18.393993
12.364984
11.019707
10.205507
9.771585
10.430813
9.946823
10.396838
11.091828
10.902882
10.904670
11.033416
10.843873
11.272430
10.930896
11.561513
11.574626
11.764765
12.475848
12.173653
11.840463
13.019443
13.107657
13.339520
13.565421
13.301969
13.497472
13.425946
13.410449
13.402700
13.298988
13.227463
12.914538
13.890862
13.458729
13.394952
13.590455
13.462901
13.641715
13.069510
13.813972
13.540983
13.073683
13.543963
13.463497
13.152957
##ZVALUE=280
0.937581
0.956655
1.006722
0.907779
0.845790
0.811815
0.819564
0.999570
0.842810
1.221895
0.978708
1.142621
1.157522
1.308918
1.204610
1.232624
1.135468
1.106858
1.593828
1.669526
1.497865
2.468824
16.885400
52.103996
132.266879
219.742656
372.450948
500.604510
660.621524
756.477714
812.068582
794.965625
718.575716
550.759435
410.774946
236.726999
145.186782
69.443583
44.044852
41.101575
54.593682
79.069734
102.868676
128.548741
142.722726
145.097971
142.347813
128.002763
107.487440
81.196427
60.486794
40.197968
27.683973
17.886758
13.704896
10.965466
11.042953
11.094809
11.031628
11.723638
12.557507
12.827516
12.250543
12.047887
12.382865
12.066960
12.547970
12.622476
13.098717
13.192892
13.381839
14.277697
13.733506
13.466477
13.777614
14.257431
13.968945
13.543963
13.633966
13.348460
14.162660
13.485551
13.413429
13.343692
13.356805
13.054609
12.831688
13.510585
13.256669
13.235807
12.845993
13.329983
13.035536
12.781620
12.808442
13.385415
##ZVALUE=285
0.806451
0.835657
0.832677
0.813603
0.479817
0.709891
0.698566
0.639558
0.758767
0.850558
0.956655
0.923872
1.115799
1.046658
1.163483
0.940561
0.872612
1.093745
1.191497
1.180768
1.338720
1.336932
1.703501
1.904964
5.578995
21.492839
71.871877
140.347481
303.343534
472.520590
658.041835
874.409676
982.288718
996.295810
895.669460
695.760846
532.435775
317.944884
196.295977
94.200969
51.107407
30.521750
33.538938
50.980449
71.623921
100.651979
118.896961
137.647986
142.829418
139.604807
129.208565
104.467869
87.123513
60.508847
44.866800
28.631687
20.947456
15.543699
14.167428
13.608932
13.376474
13.303757
13.917685
13.612509
13.625622
13.950467
14.725924
14.195442
14.603734
14.985800
15.253425
15.165806
15.165806
14.639497
14.171600
14.761686
14.702678
14.999509
14.961958
14.996529
14.629960
14.290810
14.102459
13.780594
13.820529
13.344884
13.368726
13.228655
13.219714
12.957454
12.819767
12.586713
13.169646
13.136864
12.145638
12.800694
##ZVALUE=290
0.850558
0.725985
0.737906
0.921488
0.856519
0.829697
0.891685
0.670552
1.092553
0.905991
0.886917
0.861883
0.970960
0.916719
0.985861
1.017451
1.077652
1.136661
1.099706
1.199841
1.118779
1.232624
1.236796
1.271963
1.496673
1.532435
2.087951
6.020665
26.797652
62.838793
127.642751
308.756828
521.882772
832.673907
1004.566550
1016.150713
1016.150713
855.621696
666.486621
419.567823
265.839696
131.778717
69.938898
30.843616
24.863482
33.035874
46.948791
71.254969
91.103911
117.093921
132.689476
142.058730
141.381621
126.105547
108.395815
81.521869
64.130425
44.987798
33.058524
22.655725
18.544793
16.247630
15.966892
15.601516
15.499592
15.832782
15.810728
15.900731
16.270876
16.147494
16.553998
16.953945
16.449690
16.684532
16.399622
16.827583
16.680956
15.522838
15.295744
14.598966
15.408993
15.055537
14.896989
14.498830
14.445782
14.405847
14.114976
14.018416
13.634562
13.438463
13.656616
13.112426
13.018847
12.820959
13.326406
13.488531
##ZVALUE=295
0.873804
0.616908
0.593662
0.818968
0.791550
0.806451
0.920892
0.758767
0.835657
0.751615
0.891685
0.890493
0.808835
0.870824
0.896454
0.916719
0.994802
1.045465
0.963807
1.066923
1.018643
1.068711
1.018643
0.995994
1.389980
1.367927
1.533628
1.665950
1.658797
2.882481
13.184547
38.829446
87.690949
223.058462
388.211012
677.578449
880.474448
1016.113758
1016.113758
990.051627
811.414719
545.718670
358.032584
175.747871
96.055865
38.582683
22.147894
22.168756
29.947758
46.977997
65.005422
91.877580
110.954642
128.928423
135.839581
135.667920
124.450922
103.635788
86.748004
64.618587
49.006939
34.082532
25.854707
20.613670
17.748475
17.861724
17.289519
16.954541
16.984940
17.284751
17.604828
17.609000
17.538667
16.844869
16.880631
16.958714
16.229749
16.458631
16.639829
16.208887
15.821457
15.414953
15.192628
14.993548
14.819503
14.604926
14.161468
14.174581
14.466643
13.842583
13.389587
13.357997
12.974739
12.967587
13.176799
12.841821
##ZVALUE=300
0.846982
0.707507
0.553727
0.661612
0.672936
0.839829
0.773668
0.761747
0.665784
0.697970
0.859499
0.686646
0.758767
0.909567
0.850558
0.846982
0.962615
0.831485
0.940561
1.078844
0.984669
0.937581
1.037717
0.935793
1.046658
1.166463
1.331568
1.327991
1.343489
1.435876
1.788735
1.770854
4.236698
22.109747
57.382584
148.461461
254.775882
448.537469
607.174635
774.824619
845.565796
822.705626
733.459592
552.526712
398.370624
219.901800
132.759809
62.454939
31.613708
17.928481
19.418597
30.012727
42.164922
64.367652
84.421635
108.548999
123.963952
133.768916
131.519437
119.667649
106.693506
84.118843
66.585541
47.665834
36.570430
25.919676
21.587610
18.999577
18.400550
17.773509
17.162561
16.858578
17.279983
17.471910
17.548800
16.361475
16.755462
16.598701
16.129613
16.484857
16.109943
15.628934
15.959740
15.253425
15.061498
14.944673
14.739633
14.430881
13.839602
13.901591
13.719797
13.706684
13.329983
13.055801
12.247562
12.927651
##ZVALUE=305
0.729561
0.586510
0.706911
0.883937
0.795722
0.733733
0.651479
0.688434
0.618696
0.693798
0.749826
0.730753
0.763535
0.897646
0.913739
0.803471
0.840425
0.744462
0.819564
0.753999
0.813603
0.920892
0.928640
0.954866
1.102686
0.922680
0.765920
0.973940
1.006722
1.178980
1.289845
1.273751
1.278520
1.647472
3.141761
10.258555
41.448474
92.348456
207.297802
324.658751
502.536893
628.013015
747.252703
767.809749
705.423951
598.059893
429.531932
303.492546
159.058571
92.047453
39.921999
21.426678
17.256737
20.225644
30.570626
43.138862
65.152645
82.865953
104.451776
117.181540
127.339959
125.015974
116.051435
102.937818
80.996752
64.226985
45.764446
34.848452
24.872422
20.490885
17.760992
17.260909
16.763806
16.488433
16.512871
16.289949
15.661716
16.145706
15.784502
16.169548
15.532970
15.161633
15.073419
15.826821
15.281439
14.866590
15.057921
14.371872
14.227629
14.426708
13.903975
13.892651
13.107657
13.165474
13.348460
12.833476
##ZVALUE=310
0.800490
0.729561
0.701547
0.717640
0.677705
0.773668
0.679493
0.685453
0.572801
0.660419
0.660419
0.888705
0.592470
0.696778
0.700951
0.791550
0.801682
0.793934
0.710487
0.833869
0.742674
0.791550
0.894666
0.812411
0.827909
0.654459
0.915527
0.964999
1.001954
1.095533
1.065731
1.152754
1.176000
1.378655
1.190901
1.448989
1.573563
5.478859
17.304420
59.403777
117.264986
245.667696
371.861458
551.955700
666.413903
748.582482
741.764903
648.037791
534.941554
362.434983
244.424939
124.995708
70.391893
29.660463
17.374754
15.823841
19.174814
28.336644
38.483739
56.697726
73.349476
94.614625
108.375549
119.254589
120.137930
111.428499
98.289847
80.083609
62.238574
43.876767
33.762455
24.730563
20.061731
16.993880
15.877485
15.324950
15.471578
15.432835
14.764667
14.781952
14.855862
15.194416
14.618635
14.633536
14.926791
14.534593
14.483929
14.144778
14.031529
13.845563
13.606548
13.262630
13.656616
13.274550
12.808442
12.751818
##ZVALUE=315
0.567436
0.557899
0.670552
0.552535
0.736713
0.557899
0.700951
0.771880
0.797510
0.659823
0.682473
0.765920
0.732541
0.738502
0.748634
0.628829
0.746846
0.682473
0.781417
0.719428
0.640750
0.898838
0.838637
0.898838
0.815988
0.794530
0.657439
0.780821
0.943542
0.844598
0.858903
0.970960
1.083612
1.054406
1.065731
1.268983
1.166463
1.240969
1.441836
2.804995
9.082556
37.845969
81.315637
184.187889
299.614668
487.248898
603.353977
715.370774
742.236972
689.213872
594.531894
431.244969
306.394696
166.351795
93.278885
38.488507
20.736456
13.963580
14.494658
18.595457
24.785995
36.757588
50.425529
69.527626
84.532499
101.843476
110.074878
112.764835
105.691552
90.277791
76.289773
57.427883
43.658614
29.710531
23.407936
17.851591
15.464425
14.685988
13.986826
14.161468
14.417768
13.911724
14.327765
13.618469
13.988614
13.954639
13.958812
14.035702
13.621449
13.689995
13.563633
13.387799
12.685657
12.478828
12.688637
12.800694
##ZVALUE=320
0.587702
0.601411
0.563860
0.587702
0.667572
0.566840
0.686646
0.649691
0.609756
0.527501
0.666976
0.651479
0.647902
0.664592
0.691414
0.620484
0.680685
0.679493
0.597835
0.833869
0.705719
0.829697
0.846982
0.721812
0.793934
0.822544
0.751615
0.864863
0.835657
0.926852
0.820756
0.827909
0.926852
1.022816
0.890493
1.141429
0.991821
0.912547
1.196861
1.318455
1.087785
1.699924
4.060864
20.991564
52.409768
137.564540
229.712725
384.150743
512.983799
660.822988
721.846819
716.098547
645.023584
495.979786
365.909934
205.615759
121.483803
54.227710
27.398467
13.222694
11.423826
12.405515
14.949441
21.494627
30.057430
45.679808
59.714913
78.994632
91.088414
101.910830
103.561878
98.609924
87.514520
69.569945
55.533648
38.604736
28.845668
21.165609
17.293692
14.381409
14.121532
13.615489
13.305545
13.536811
13.608932
13.184547
13.371706
13.341904
13.004541
13.387799
13.077855
12.711883
12.499690
12.605786
12.414455
12.488961
##ZVALUE=325
0.612736
0.711679
0.758767
0.582933
0.717640
0.728965
0.594854
0.715852
0.652671
0.724792
0.765920
0.572801
0.822544
0.644922
0.660419
0.655651
0.697970
0.759959
0.672936
0.835657
0.708699
0.880957
0.764728
0.685453
0.855923
0.736713
0.847578
0.830889
0.714660
0.780821
0.701547
0.853539
0.773668
0.707507
0.997782
0.919700
0.895858
1.034737
0.974536
1.327991
1.254678
1.253486
1.529455
1.398921
2.513528
13.410449
34.926534
92.385411
167.677999
317.245722
447.424650
613.746643
701.738596
736.063719
686.892867
541.536808
408.672690
248.873830
150.605440
69.640875
35.807490
14.303923
9.415746
8.996725
9.740591
13.513565
18.553734
28.923750
40.541887
59.119463
73.497891
88.576674
95.995665
97.214580
91.128945
78.458786
66.125989
49.621463
37.597418
25.911927
19.875765
15.679598
14.065504
13.183951
12.450814
12.722611
13.064742
12.519956
12.688637
12.696981
12.572408
12.497902
12.243986
12.196898
11.983514
12.043715
##ZVALUE=330
0.541806
0.503659
0.505447
0.464916
0.562668
0.571609
0.747442
0.617504
0.551939
0.703931
0.689626
0.598431
0.583529
0.582933
0.580549
0.567436
0.639558
0.656843
0.724792
0.688434
0.681877
0.604987
0.639558
0.653863
0.775456
0.678897
0.815988
0.886917
0.774860
0.688434
0.770688
0.958443
0.679493
0.776649
0.757575
0.854731
0.859499
0.900626
0.827909
0.920892
0.970960
1.023412
1.296997
1.023412
1.330972
1.422763
1.509786
6.157756
19.109845
62.040687
118.345618
238.018632
354.238749
514.199734
621.814728
693.171024
673.597455
571.070910
461.289883
299.973488
194.357634
92.487931
47.935843
19.317865
10.320544
7.892847
8.428693
9.386539
11.945963
18.908978
25.960803
39.713979
52.583814
70.036650
81.247687
90.608001
91.392994
84.696412
75.280666
60.305595
48.063993
33.924580
26.386976
20.175576
16.301870
14.007688
12.877584
12.363791
12.007952
12.204647
11.666417
11.878610
12.036562
11.652708
11.887550
11.674762
##ZVALUE=335
0.432730
0.563860
0.575781
0.723600
0.555515
0.486970
0.577569
0.583529
0.693798
0.636578
0.636578
0.582933
0.709891
0.629425
0.590682
0.685453
0.584722
0.634789
0.587702
0.490546
0.508428
0.559688
0.603795
0.814795
0.668764
0.752807
0.515580
0.751615
0.791550
0.653863
0.685453
0.742674
0.761747
0.935793
0.661612
0.659823
0.850558
0.881553
0.829697
0.901818
0.907779
1.021624
1.093745
1.000762
0.983477
1.093745
1.182556
1.392961
1.571774
2.547503
12.924671
34.298897
95.286965
171.861649
317.458510
447.393656
608.246922
679.308772
691.686869
642.611980
510.563850
390.572548
234.200954
141.722560
61.799884
30.129552
12.034774
8.468628
7.699728
8.312464
9.889603
11.725426
17.367601
25.018454
37.711859
49.360991
65.638423
76.554418
84.607601
85.815787
79.779625
70.770979
58.276653
47.750473
34.738779
27.560592
19.593835
16.396642
13.526678
12.490749
12.012720
11.460781
11.560917
11.445880
11.441708
11.570454
##ZVALUE=340
0.355840
0.488758
0.552535
0.419617
0.428557
0.465512
0.419617
0.468493
0.433922
0.521541
0.505447
0.482798
0.524521
0.510812
0.531673
0.412464
0.370741
0.405908
0.471473
0.504851
0.464916
0.590682
0.545979
0.513792
0.616908
0.576973
0.525713
0.628829
0.478625
0.701547
0.754595
0.677705
0.574589
0.645518
0.672936
0.606775
0.573993
0.584722
0.602603
0.777841
0.735521
0.616908
0.818968
0.855923
0.827909
0.931621
0.725985
0.946522
0.957847
1.239777
1.027584
1.392961
7.012486
22.273660
71.177483
140.755773
281.306505
399.871469
553.544760
641.185641
692.356825
662.757754
552.041531
435.590744
274.005532
172.117949
80.849528
40.750504
14.652610
8.780956
7.542968
7.888675
8.479953
9.333491
11.940598
16.358495
25.386810
34.695864
49.987435
61.343908
73.479414
79.555511
80.573559
76.876879
67.137480
57.347417
44.403672
35.384893
25.147796
19.990802
15.425682
12.881756
11.382699
10.929704
10.800958
10.833740
##ZVALUE=345
0.520945
0.577569
0.495911
0.597835
0.590682
0.594854
0.680685
0.594854
0.774860
0.724792
0.481606
0.603795
0.587702
0.588894
0.584722
0.720620
0.526905
0.656843
0.641942
0.796914
0.664592
0.699759
0.640750
0.577569
0.709891
0.696778
0.666976
0.648499
0.645518
0.667572
0.822544
0.723600
0.750422
0.731945
0.732541
0.731945
0.756979
0.568628
0.824928
0.891685
0.793934
0.828505
0.885725
0.840425
0.788569
0.874996
1.020432
0.917912
1.053810
1.136661
1.214743
1.199841
1.390576
1.509786
3.250837
11.630654
50.334930
111.343861
253.107548
390.623808
582.978725
702.255964
776.673555
760.147572
656.548738
536.008477
358.321667
233.034492
106.176734
52.963495
20.150542
11.288524
8.561611
8.148551
8.134842
8.560419
9.424686
11.765957
16.683936
22.842884
34.413934
44.250488
56.801438
65.139532
72.498918
74.366927
71.520805
65.145493
54.018497
45.012832
33.874512
26.265979
19.017458
15.370846
12.564659
11.793971
##ZVALUE=350
0.560880
0.615716
0.471473
0.548959
0.496507
0.538826
0.655651
0.761747
0.698566
0.644922
0.712872
0.597835
0.690818
0.707507
0.565648
0.609756
0.652671
0.637770
0.689626
0.660419
0.712872
0.531673
0.663996
0.764728
0.579953
0.695586
0.784993
0.645518
0.771880
0.704527
0.644922
0.700951
0.682473
0.725985
0.635982
0.941753
0.712872
0.562668
0.825524
0.816584
0.758767
0.869632
0.884533
0.823736
0.933409
0.884533
0.954866
0.696778
1.014471
1.036525
0.980496
1.201630
1.116991
1.391768
1.383424
2.052784
2.035499
6.970763
23.781657
200.911760
230.014920
476.092696
699.209571
943.054557
1016.121507
1012.556553
888.328552
638.076663
456.163883
262.666941
153.243542
69.508553
33.794641
13.244748
8.696914
7.966757
7.938743
7.756948
8.043647
9.352565
10.814667
15.969872
21.121502
30.248761
38.671494
51.249862
59.177876
65.981746
68.672895
67.017674
61.082840
50.952435
43.239594
32.749772
26.044846
18.951893
##ZVALUE=355
0.604987
0.534654
0.677705
0.461936
0.611544
0.692606
0.557899
0.756979
0.651479
0.565648
0.605583
0.595450
0.619888
0.644922
0.513792
0.673532
0.524521
0.594854
0.601411
0.648499
0.756979
0.559688
0.604987
0.620484
0.513792
0.665784
0.503659
0.727773
0.637770
0.573993
0.586510
0.757575
0.799894
0.723600
0.692606
0.700951
0.735521
0.788569
0.632405
0.911951
0.817776
0.768900
0.812411
0.818968
0.837445
0.850558
0.807643
0.945926
0.880957
0.822544
0.995994
1.059771
1.084805
1.116991
1.279712
1.348853
1.242757
1.454949
1.602769
3.578663
10.877848
44.527650
102.840662
248.359442
418.486595
673.470497
826.783776
916.051865
878.229737
699.696541
530.451536
319.047570
188.261867
82.577467
41.316748
16.665459
9.492636
7.690787
7.518530
7.459521
7.496476
7.922649
8.473992
10.220408
13.134480
19.075871
25.096536
34.620762
43.011904
52.696466
58.791637
62.217712
61.402917
55.589676
49.212575
39.998889
##ZVALUE=360
0.627637
0.614524
0.641942
0.465512
0.664592
0.626445
0.630617
0.518560
0.593662
0.614524
0.630617
0.505447
0.572801
0.654459
0.606775
0.704527
0.600815
0.596642
0.707507
0.591874
0.592470
0.571609
0.505447
0.572801
0.626445
0.646710
0.791550
0.690818
0.553727
0.671744
0.625849
0.628829
0.523925
0.620484
0.526905
0.640750
0.746846
0.830889
0.675917
0.680685
0.821948
0.823736
0.652671
0.785589
0.692606
0.812411
0.826716
0.773668
0.825524
0.761747
0.781417
0.887513
0.893474
0.949502
0.991821
0.963807
1.038909
1.115799
1.036525
1.284480
1.382828
1.698732
4.835725
20.588636
50.234795
124.091506
204.824805
333.633423
440.605879
542.193651
567.606688
527.397990
446.438789
307.238698
206.558704
103.942752
55.270791
22.302866
10.937452
6.964803
6.658435
6.658435
6.804466
6.852746
7.138848
7.594824
8.723736
11.396408
14.764667
21.112561
28.391480
37.607551
45.076609
52.359700
55.601001
55.849552
##ZVALUE=365
0.508428
0.518560
0.421405
0.514984
0.599623
0.725985
0.693798
0.578761
0.533462
0.596642
0.477433
0.438690
0.543594
0.393987
0.463724
0.501871
0.582933
0.528693
0.552535
0.536442
0.492930
0.509620
0.487566
0.631809
0.585914
0.843406
0.664592
0.675917
0.700951
0.545979
0.593662
0.612736
0.459552
0.563860
0.796914
0.764728
0.716448
0.620484
0.578761
0.683665
0.853539
0.600815
0.755787
0.724792
0.663996
0.797510
0.687838
0.559688
0.700951
0.695586
0.716448
0.722408
0.678897
0.930429
0.757575
0.876784
0.818968
1.023412
0.757575
0.952482
0.995994
1.163483
1.352429
1.285672
2.180934
10.660887
29.921532
83.219409
150.687695
272.016525
371.720791
483.363867
534.287691
526.823997
466.240644
345.776677
247.426629
138.050914
77.631474
31.116605
14.506578
7.347465
6.273985
6.268620
6.078482
6.323457
6.268620
6.586909
6.747842
7.818937
9.233952
13.400912
17.328858
24.536848
31.273961
39.944649
##ZVALUE=370
0.519753
0.591874
0.528693
0.497699
0.367761
0.463724
0.453591
0.533462
0.600815
0.578761
0.507832
0.569820
0.618696
0.528693
0.540614
0.560880
0.445843
0.431538
0.593662
0.581741
0.627637
0.588894
0.568628
0.562668
0.511408
0.648499
0.525713
0.563860
0.653863
0.642538
0.591874
0.683665
0.660419
0.584722
0.676513
0.685453
0.582933
0.566840
0.726581
0.527501
0.480413
0.657439
0.631809
0.627637
0.611544
0.690818
0.684857
0.712872
0.751615
0.598431
0.685453
0.595450
0.685453
0.690818
0.713468
0.785589
0.908971
0.774860
0.852942
0.750422
0.933409
1.021624
1.016855
1.021624
1.030564
1.069903
1.806617
4.777908
23.238659
55.755973
129.658580
207.896829
332.535505
427.473783
514.250994
526.657701
479.263663
396.241546
268.110633
176.307559
85.161924
45.355558
18.876791
9.613633
6.072521
5.741715
5.829930
6.010532
5.654693
5.704761
6.102920
6.312728
6.941557
8.420944
11.575818
15.324950
##ZVALUE=375
0.376701
0.439882
0.281930
0.531673
0.340939
0.511408
0.442863
0.553727
0.379682
0.311732
0.408888
0.423789
0.500679
0.455976
0.511408
0.470877
0.330806
0.461936
0.389814
0.426769
0.358820
0.395775
0.347495
0.427961
0.440478
0.449419
0.629425
0.593662
0.523925
0.524521
0.271797
0.462532
0.413656
0.308752
0.513792
0.329614
0.570416
0.589490
0.653863
0.492930
0.435710
0.541806
0.517964
0.611544
0.580549
0.613928
0.608563
0.661612
0.599623
0.652671
0.538826
0.565648
0.580549
0.557899
0.542998
0.622869
0.613928
0.771880
0.744462
0.636578
0.646710
0.619888
0.587702
0.693798
0.902414
0.771880
0.791550
1.031756
1.218915
3.105998
9.975433
35.300851
76.040626
169.555545
262.033939
389.234424
464.089513
514.913797
501.382947
417.646766
325.933695
203.560591
131.357908
65.986514
34.541488
13.100505
6.890893
5.534887
5.459785
5.268455
5.363822
5.227923
5.350709
5.335808
5.799532
6.396770
##ZVALUE=380
0.477433
0.503659
0.507832
0.600815
0.565648
0.447631
0.512600
0.482798
0.449419
0.488758
0.527501
0.422597
0.588894
0.640750
0.615716
0.600815
0.507832
0.567436
0.552535
0.477433
0.486970
0.639558
0.584722
0.599623
0.546575
0.664592
0.675917
0.601411
0.698566
0.603795
0.515580
0.595450
0.639558
0.515580
0.504851
0.644922
0.703931
0.551939
0.475645
0.573993
0.561476
0.575781
0.644922
0.452995
0.566840
0.474453
0.691414
0.567436
0.452995
0.610948
0.723600
0.599623
0.704527
0.695586
0.601411
0.584722
0.693798
0.669956
0.629425
0.667572
0.677705
0.719428
0.723600
0.799894
0.887513
1.027584
0.765920
0.916719
0.969768
1.170635
1.376867
1.845956
5.869865
26.755929
59.820414
138.107538
222.299695
345.980525
434.953570
510.456562
511.853695
443.040729
365.575552
254.893899
174.398422
87.749958
46.570897
18.052459
9.150505
5.579591
4.967451
4.834533
4.730821
4.963875
5.044937
4.997849
##ZVALUE=385
0.503659
0.413656
0.498891
0.552535
0.401735
0.422597
0.542998
0.430942
0.432730
0.411868
0.498891
0.595450
0.428557
0.459552
0.626445
0.428557
0.555515
0.469685
0.477433
0.468493
0.462532
0.594854
0.607967
0.528693
0.643730
0.557899
0.541806
0.454783
0.443459
0.505447
0.478625
0.436902
0.545979
0.565648
0.481606
0.510812
0.488758
0.530481
0.638962
0.449419
0.553727
0.707507
0.677705
0.716448
0.656843
0.605583
0.602603
0.569820
0.715852
0.528693
0.657439
0.634789
0.722408
0.643730
0.735521
0.605583
0.611544
0.776649
0.678897
0.699759
0.735521
0.754595
0.790954
0.697970
0.736713
0.732541
0.927448
0.741482
0.879765
1.041889
1.032948
1.172423
1.042485
1.134872
2.799630
15.226603
38.293004
96.268654
169.092417
291.597843
384.062529
475.847721
501.724482
477.615595
422.117710
309.917927
222.676992
122.872591
70.923567
30.329823
13.664961
5.927682
4.798770
4.499555
4.435778
4.589558
##ZVALUE=390
0.469685
0.529885
0.538826
0.538826
0.358820
0.448823
0.489950
0.409484
0.444651
0.499487
0.468493
0.414848
0.516772
0.530481
0.508428
0.551939
0.576973
0.569820
0.533462
0.581741
0.576973
0.463724
0.590682
0.495911
0.576973
0.552535
0.526905
0.600815
0.671744
0.441670
0.415444
0.420809
0.649691
0.438690
0.577569
0.669956
0.680685
0.725985
0.575781
0.511408
0.649691
0.661612
0.605583
0.524521
0.546575
0.575781
0.531673
0.646710
0.561476
0.491738
0.551939
0.569820
0.620484
0.630617
0.602603
0.660419
0.664592
0.598431
0.515580
0.692606
0.586510
0.688434
0.525713
0.609756
0.669956
0.637770
0.826716
0.762939
0.885725
0.900626
0.889897
0.952482
1.074672
1.131892
1.074672
1.447797
1.771450
7.669926
23.740530
72.489977
135.681629
252.501965
343.343616
442.164540
496.873856
508.428812
470.231771
372.299552
284.798741
175.415874
102.490783
43.494701
20.985603
7.403493
4.715919
4.462600
##ZVALUE=395
0.487566
0.478625
0.385642
0.507832
0.527501
0.390410
0.582933
0.526905
0.508428
0.357628
0.604987
0.521541
0.464916
0.437498
0.587702
0.529885
0.461936
0.581741
0.512600
0.560880
0.443459
0.336766
0.527501
0.419617
0.485778
0.666976
0.503659
0.475645
0.556707
0.694990
0.522733
0.597835
0.550747
0.592470
0.630617
0.591874
0.646710
0.631809
0.545979
0.627637
0.473857
0.587702
0.610948
0.584722
0.638962
0.601411
0.506639
0.502467
0.613928
0.708699
0.664592
0.607967
0.677705
0.750422
0.649691
0.673532
0.703931
0.644922
0.641942
0.417829
0.622869
0.663996
0.625849
0.807643
0.610948
0.588894
0.695586
0.815988
0.826716
0.794530
0.819564
0.824928
0.939965
0.958443
0.978708
1.021624
1.176000
1.161695
1.203418
4.179478
15.291572
54.266453
104.838610
205.084682
306.873918
445.374846
525.479913
569.200516
548.462868
462.126732
359.593630
223.655701
139.705539
62.616467
30.590892
11.357665
##ZVALUE=400
0.399947
0.434518
0.649691
0.491738
0.654459
0.505447
0.490546
0.631809
0.461936
0.598431
0.538826
0.524521
0.536442
0.472665
0.474453
0.482798
0.587702
0.458956
0.424981
0.594854
0.475645
0.480413
0.454783
0.523925
0.447631
0.579953
0.588894
0.459552
0.509620
0.646710
0.693798
0.597835
0.630617
0.592470
0.577569
0.533462
0.509620
0.616908
0.608563
0.597835
0.566840
0.606775
0.635982
0.677705
0.573993
0.544786
0.678897
0.599623
0.536442
0.601411
0.439882
0.544786
0.776649
0.645518
0.691414
0.667572
0.678897
0.604987
0.650883
0.532866
0.552535
0.688434
0.775456
0.554919
0.667572
0.789762
0.890493
0.765920
0.779629
0.815988
0.717640
0.896454
0.861883
0.955462
0.946522
0.957847
1.041889
1.020432
0.915527
1.150966
1.184940
2.573729
7.872581
28.866529
63.997507
150.211453
243.234634
380.704999
473.085642
553.488731
561.184883
493.260622
404.863954
268.105865
176.559687
90.038776
##END
