##TITLE=FQP00652
##FORMAT=SPECTACLE-ASCII V-1.2
##DATA TYPE=ULTRAVIOLET SPECTRUM
##SECOND TYPE=ULTRAVIOLET SPECTRUM
##DATE=03/05/18
##TIME=12:46:50
##SPECTROMETER/DATA SYSTEM=SPECTACLE
##XUNITS=NM EM
##YUNITS=ENERGY
##YFACTOR=1
##FIRSTX=220
##LASTX=410
##NPOINTS=96
##3DDATA=Equidistant
##ZUNITS=NM EX
##FIRSTZ=210
##LASTZ=400
##ZPOINTS=39
##XYDATA=(Y..Y)
##ZVALUE=210
2.496839
2.097487
2.076626
2.292991
2.415776
2.909899
2.337694
2.538562
2.339482
2.558827
2.332926
2.663732
2.601743
2.330542
2.838969
3.019571
3.231764
2.839565
2.870560
3.430843
4.453659
4.570484
4.216433
4.888773
4.950762
5.103946
5.904436
6.587505
6.006956
6.903410
7.414818
8.757710
9.377599
8.259416
9.043813
8.791685
8.948445
9.629726
9.968877
8.478761
8.311868
9.888411
8.798838
9.152889
8.534789
8.119941
7.720590
8.416772
7.807612
7.910728
6.982684
8.010864
8.063912
7.772446
8.516908
7.557869
8.007884
9.545684
8.323789
8.592606
8.812547
8.487701
7.927418
8.103848
8.349419
8.278489
8.510947
9.605885
10.634661
12.538433
14.491677
19.176602
20.663738
22.820830
24.374723
28.881431
27.568936
28.788447
31.178594
29.197931
27.557611
27.953982
27.696490
24.508834
20.205975
14.794469
12.125969
9.687543
8.069873
7.995963
8.980632
7.939935
7.518530
8.270741
8.002520
7.471442
##ZVALUE=215
6.330609
6.216764
5.621910
5.755424
4.705787
4.416704
4.495978
5.469918
4.265904
5.707741
5.168915
4.252791
4.284978
3.386736
3.888607
2.763867
3.372431
2.928972
2.782941
3.433824
3.802776
3.831983
3.911853
4.086494
4.271865
4.885793
5.620718
6.131530
7.268786
8.853674
8.623600
11.043549
10.893941
11.260509
11.759996
12.084842
11.084676
11.353493
11.876822
10.907650
10.485649
10.518432
11.245608
9.332895
9.768605
9.258986
8.891821
9.549856
9.433627
8.465648
8.845925
8.717775
8.531809
7.318854
7.938743
6.883740
8.165836
6.725788
6.738901
7.332563
7.353425
6.695986
7.229447
6.980896
6.353855
7.294416
6.644726
7.061958
7.992983
8.500814
10.433793
13.038516
12.852550
15.588999
14.970899
16.409755
16.307831
16.566515
18.018484
16.454458
16.260743
15.455484
13.971925
13.114810
10.629892
9.835958
8.488894
7.184744
6.347895
5.364418
6.586909
6.040931
5.646944
5.601645
5.794764
6.334782
##ZVALUE=220
17.970800
18.209815
19.693971
19.355416
16.546845
15.658736
13.933778
11.064410
10.184646
9.530783
11.301637
11.333823
11.040568
10.785460
8.035898
6.930828
5.171895
4.262924
3.356934
2.311468
3.174543
3.813505
2.974868
3.568530
4.361868
5.503893
7.076859
6.819963
9.702444
10.638833
13.144612
14.067888
15.778542
15.565753
15.607476
16.941428
17.288923
16.371608
17.058849
13.817549
14.301538
15.232563
13.490915
14.204979
12.207627
10.505915
12.375712
10.923743
10.076761
10.470748
8.565784
9.465814
8.273721
7.598996
8.372664
8.046627
7.214546
7.387996
7.508993
6.629825
7.798672
7.041693
7.242560
5.924702
6.861687
6.337762
6.468892
7.078648
7.214546
7.372499
7.464886
9.238720
11.411905
11.271834
11.583567
12.931824
13.733506
12.829900
12.327433
12.442470
11.391640
11.797547
12.460947
10.760427
9.989738
8.752942
8.012652
6.652474
7.077456
5.978942
6.494522
5.558729
6.184578
6.903410
4.786849
5.542636
##ZVALUE=225
31.530857
34.427643
39.205551
50.936937
56.231618
57.480931
53.740740
41.889548
34.063458
26.002526
21.726489
22.165775
24.080873
24.679899
26.297569
24.521947
20.025969
16.405582
11.192560
8.479953
5.465746
5.162954
3.393888
3.539920
4.350543
4.898906
6.635785
8.345842
9.670854
12.581944
14.034510
15.921593
17.638803
19.827485
19.936562
21.342635
19.636750
22.014976
19.872785
19.594431
17.766953
17.258525
17.258525
16.071796
14.975667
14.016628
12.723804
12.071729
11.915565
10.821819
11.796951
11.066794
9.982586
10.116696
9.698868
9.144545
9.938478
9.305477
9.808540
8.742809
8.772612
8.074641
7.890463
8.179545
8.697510
8.439422
8.481741
8.680820
8.197427
8.807778
9.686947
10.543466
10.495782
11.163950
12.076497
10.865927
11.194944
11.736751
11.324883
10.796785
9.675622
9.952784
9.705424
9.345412
7.963777
7.933974
8.925796
7.527471
8.045435
7.618666
7.319450
7.164478
6.997585
7.096529
6.970763
6.179810
##ZVALUE=230
27.402639
32.850504
51.704645
81.739426
102.715492
130.356550
136.168599
140.661597
128.457546
108.332634
80.585480
61.904788
47.183633
42.314529
43.999553
48.919916
49.633980
48.384666
42.327642
36.424994
27.994514
19.022822
12.769699
8.625984
6.144643
6.988645
7.141829
8.821487
10.008812
11.895895
13.232827
15.670657
16.500950
15.671849
18.649697
18.853545
17.761588
18.336773
18.651485
17.513633
17.952919
17.420650
17.677546
16.468763
16.118884
15.238523
14.284849
12.888908
13.352633
13.124943
11.724830
11.790991
12.339950
12.430549
12.848973
13.070703
13.954639
12.564659
12.298822
12.247562
11.449456
12.671947
12.429953
12.187958
11.883974
13.461709
12.109876
13.502836
12.406707
13.602972
14.167428
15.619993
15.162826
17.072558
18.753409
18.260479
17.786622
17.490983
17.555952
16.241670
16.735792
14.563799
14.418960
13.467669
13.451576
12.828708
13.896823
12.170672
12.936592
11.434555
11.440516
12.613535
11.227727
12.033582
12.633801
12.441874
##ZVALUE=235
11.749864
12.450814
26.838779
65.126419
104.540586
175.339580
233.159661
310.715437
338.417888
357.279778
329.061747
277.673006
204.162598
152.532458
101.044774
78.883767
70.855618
76.666474
84.164739
78.094602
74.962974
63.714981
53.205490
35.172701
23.503900
15.628934
11.525750
9.410977
8.525848
10.791421
10.399818
11.660457
12.575984
13.438463
13.889670
13.878942
14.656782
13.219714
14.217496
13.553500
13.218522
14.531612
14.381409
14.951825
13.398528
13.511777
13.917685
13.859868
13.608932
12.554526
13.385415
15.047789
12.853742
13.770461
15.177727
14.651418
14.045835
14.280677
14.523864
15.144944
17.002821
17.154813
16.219616
15.968680
15.102625
17.235875
17.638803
19.036531
18.052459
20.493865
20.515919
22.472739
23.452640
23.181438
24.338961
26.436448
27.788877
26.520491
23.950934
26.919842
24.966598
24.746656
21.577477
20.890832
19.323826
18.971562
18.604994
19.234419
16.595721
16.437769
18.465519
17.667413
17.734766
17.921925
17.510653
17.083883
##ZVALUE=240
1.867414
2.094507
6.539822
16.295910
42.007565
79.805851
169.196725
258.888006
397.823453
497.374535
580.037832
591.226816
554.284453
447.165966
355.584621
232.537985
159.011483
106.936693
94.207525
101.657510
109.842420
113.685727
113.207698
102.938414
78.531504
65.211654
43.416619
31.727552
20.658970
13.769865
12.266636
9.772778
11.249781
11.554956
12.333989
11.984706
13.008714
12.290478
12.094975
11.983514
13.445616
12.618899
12.856722
14.319420
14.327765
13.892651
13.453960
12.423992
14.098883
15.125871
15.943646
13.432503
15.671849
15.306473
15.408993
16.586781
16.421676
16.089678
17.044544
16.456842
17.470717
17.325878
18.133521
18.991828
19.556880
18.705726
19.579530
21.093488
20.043850
22.177696
23.346543
24.157763
26.062727
28.008819
29.674768
31.184554
29.133558
29.495955
29.927492
30.102730
29.867887
26.828647
28.160810
27.076602
27.073622
26.869774
24.073720
22.797585
22.128820
20.851493
20.605922
20.128489
21.555424
20.267963
19.507408
20.313859
##ZVALUE=245
1.827478
1.604557
1.508594
1.515746
3.678799
11.668801
32.907724
70.613623
150.675774
243.694782
400.541425
511.246920
599.922538
659.461617
647.662878
535.971522
424.921513
296.773911
206.523538
120.404959
97.751617
93.299747
112.450719
122.695565
126.518607
122.879744
108.726621
91.314912
71.018934
53.435564
40.659904
25.108457
17.684698
13.228655
13.002753
12.676716
12.505651
14.217496
13.753772
13.805628
13.822913
14.809966
14.649630
14.127493
13.478994
13.984442
14.700890
14.762878
13.578534
14.914870
12.482405
14.845729
14.137626
15.237927
14.761686
14.419556
13.922453
14.940500
14.533997
15.705824
15.791655
15.821457
16.627908
16.545653
16.565919
17.182827
17.227530
17.689466
17.677546
19.125938
20.984411
20.052791
20.331740
20.983815
23.044944
23.520589
24.554729
24.722815
24.566650
23.805499
23.818612
24.308562
22.942424
22.332668
21.362901
21.247864
20.078421
22.020936
19.480586
21.302700
20.403862
21.006465
20.477772
19.950867
18.970966
19.699931
##ZVALUE=250
1.255870
1.322627
1.388788
1.452565
1.016855
1.566410
2.378821
6.293654
24.928451
53.997636
127.005577
208.155513
310.115814
445.573926
547.378659
619.724989
628.051758
558.347702
475.498438
333.913565
228.061676
153.000951
95.556974
89.455843
101.795793
117.420554
133.020878
139.257908
132.758617
120.867491
106.037855
79.604983
63.432455
39.922595
31.580925
23.291707
19.129515
16.895533
16.962886
16.033649
16.589761
16.815662
18.219948
16.856790
15.949607
15.659928
16.371608
15.977621
14.630556
14.144778
14.800429
14.639497
14.900565
14.313459
13.962984
13.323426
13.550520
13.569593
13.474822
12.956858
12.639761
13.130903
13.870597
13.960600
13.901591
13.855696
13.634562
15.386939
15.280843
15.902519
15.626550
16.913414
17.054677
17.621517
18.146634
19.912720
18.665791
18.317699
18.764734
19.007921
18.901825
18.624663
17.985702
19.597411
18.154979
18.442869
18.676519
19.569993
19.239783
18.121600
19.289851
19.047856
18.763542
18.132925
18.470883
17.767549
##ZVALUE=255
1.110435
1.349449
1.237988
1.336932
1.292825
1.338720
1.510978
1.649857
2.100468
4.127622
17.965436
45.484900
92.591643
192.727447
303.619504
459.401011
559.102893
663.275719
677.261949
632.202029
552.655458
437.621474
272.674561
180.396438
107.823610
85.814595
90.568662
104.332566
130.469799
143.266916
153.701901
152.014494
139.261484
115.560889
93.582869
67.100525
51.279664
36.337972
29.745698
24.086833
21.683574
22.881627
21.988750
20.488501
19.743443
19.716620
18.499494
18.287897
18.165708
16.749501
16.692877
15.373826
15.752912
14.785528
14.189482
14.503598
13.689995
13.698936
13.337731
13.152957
13.860464
12.953877
13.045669
12.156963
12.570620
13.134480
12.795925
13.704896
12.747645
13.692975
15.558600
15.694499
14.961958
15.887618
16.754866
16.092658
17.859936
16.863942
16.738772
16.705990
18.005967
17.085671
18.194914
17.207861
17.443895
17.864704
17.023683
17.355680
17.635822
18.547773
18.198490
18.350482
18.576980
18.054843
18.251538
18.796921
##ZVALUE=260
1.115799
1.155734
0.931621
0.893474
1.203418
1.090765
1.191497
1.277924
1.543760
1.502633
1.828671
2.528429
8.102655
31.392574
71.244836
169.721842
279.147625
455.113649
589.569807
742.411017
806.154609
797.899961
692.955852
572.088957
382.799506
255.805850
152.222514
102.760792
84.946752
92.441440
117.321610
139.327645
158.560872
171.026587
167.796612
153.218508
134.824514
103.159547
82.112551
59.050918
46.113729
34.934878
29.437542
26.974678
25.662780
24.418831
23.758411
21.131635
21.577477
20.361543
19.110441
18.737912
18.108487
15.842915
16.729832
14.943480
14.667511
14.515519
13.878942
13.604760
13.851523
13.304949
12.611747
12.483597
12.554526
12.591481
12.962818
12.577772
13.323426
13.931990
13.315678
14.403462
14.624596
14.511943
15.047789
15.486479
15.867949
15.774965
15.565753
15.971661
16.557574
16.443729
15.687943
16.672611
16.259551
15.881658
17.496943
16.650558
16.202927
17.265677
17.815828
17.284751
17.347932
17.188787
17.624497
17.390847
##ZVALUE=265
0.952482
0.993609
1.041889
0.937581
1.214743
1.209974
1.270771
1.421571
1.149774
1.448989
1.302958
1.652837
1.735687
1.815557
4.218817
19.259453
47.750473
124.564767
216.176510
402.096510
556.606650
734.627843
836.715698
861.880779
795.705914
642.334819
508.368015
321.462750
214.989781
136.730671
90.319514
85.777640
105.607510
129.812956
161.387920
175.311565
182.839632
177.231431
155.422688
136.959553
110.739470
80.949664
63.493848
44.990778
35.430789
29.962659
27.096868
24.746656
23.209453
22.291541
20.845532
20.508766
18.716455
17.992854
16.929507
16.589761
16.549826
15.153885
14.898777
14.323592
13.653636
13.701916
13.744831
13.266802
14.020801
13.224483
13.679862
13.692975
13.444424
13.608932
13.603568
14.099479
14.626980
15.010834
14.668703
14.900565
15.556812
14.771819
15.561581
15.229583
15.742779
15.502572
15.974641
15.484691
15.599728
15.514493
15.541911
15.417933
16.026497
16.175508
16.224980
16.117692
16.384721
16.915798
15.846491
15.969872
##ZVALUE=270
0.811815
0.952482
0.982881
0.870824
0.821948
0.952482
0.965595
1.188517
1.191497
1.012683
1.136661
1.113415
1.303554
1.255870
1.527667
1.620650
2.156496
8.302927
24.215579
75.497627
145.367980
247.524977
422.194600
562.340617
711.694956
768.250823
762.009621
688.279867
544.922948
416.525006
291.717649
169.658661
110.780597
81.236959
84.424615
111.762881
137.317777
160.418749
176.001787
180.643797
175.580978
156.853795
134.978890
103.724599
81.589818
56.425929
42.949915
31.407475
25.537610
23.319721
21.162629
20.956993
18.827915
18.728971
17.235875
17.613769
16.112924
16.056895
15.744567
15.174747
15.763640
14.718771
14.610887
14.463663
13.847947
14.494658
13.853908
13.915896
14.116764
14.215708
14.225841
13.969541
14.248490
14.889836
14.895797
15.023947
14.938712
14.892817
15.333891
15.019774
14.799833
14.983416
15.157461
14.887452
15.003681
15.491843
15.002489
16.065836
14.879704
15.147924
15.450716
15.157461
15.638471
15.317798
14.990568
14.900565
##ZVALUE=275
0.878572
0.794530
0.964999
0.983477
1.183748
1.025796
1.008511
1.142621
0.973940
0.832677
0.898838
1.063943
1.151562
1.160502
1.163483
1.176596
1.295805
1.545548
1.586676
4.046559
14.684796
39.070845
110.062957
200.077891
367.879868
499.257445
662.930608
762.365460
822.415948
783.282518
665.271878
530.004501
386.375785
212.588906
134.517550
77.164769
66.026449
80.250502
98.273754
127.431750
145.426989
166.294575
172.854662
163.162947
147.705674
117.796659
97.913742
70.203543
53.023696
34.576654
26.662946
20.456910
18.513799
17.413497
17.042756
16.450882
15.765429
16.423464
16.200542
16.218424
16.337633
15.690923
16.043782
15.301704
15.169978
14.963746
14.688969
14.955997
14.934540
15.032887
15.569925
14.804602
15.393496
15.654564
15.487671
15.683770
15.313625
16.015768
16.086698
15.744567
15.318990
15.501976
14.912486
14.637709
15.318990
14.885664
15.406609
15.003681
15.203953
14.481544
15.255809
13.985634
14.520884
14.751554
14.849901
14.691949
##ZVALUE=280
0.764728
0.868440
0.832677
0.740886
0.869632
0.765920
1.137853
1.055598
1.199841
0.972748
1.153946
0.936985
1.206994
1.034737
1.059771
1.080632
1.156926
1.268983
1.174808
1.475811
1.610518
2.211928
8.739829
30.590892
91.043711
163.265467
298.659801
427.696705
604.974627
715.596676
789.232850
796.221495
720.133781
556.664467
418.930650
241.733789
147.570968
75.200796
50.011873
49.032569
63.108802
89.164972
111.400485
137.937665
149.327517
155.289769
148.355961
132.182837
113.142729
85.753798
65.700412
44.332743
32.884479
22.321939
18.594861
15.767813
15.216470
15.742779
14.993548
15.540719
16.109943
16.064644
16.300678
15.900731
16.512871
16.255975
15.900731
16.463995
16.106963
16.277432
16.298890
16.487837
16.539693
16.372800
16.457438
16.274452
17.420650
15.685558
16.083717
15.740991
15.533566
15.820861
14.823675
15.626550
14.846921
15.315413
15.124679
14.692545
14.720559
14.392734
14.846921
14.983416
14.335513
14.046431
14.232993
14.674664
##ZVALUE=285
0.742674
0.794530
0.714660
0.587702
0.676513
0.659823
0.850558
0.743866
0.815988
0.823736
0.893474
0.827909
0.933409
0.813603
0.889897
1.096725
0.901818
1.026988
0.846982
1.183748
1.282692
1.513958
1.600981
1.706481
4.694462
15.099645
51.009655
104.930997
221.477747
340.141654
470.319986
641.735792
752.254725
805.687904
767.662525
634.251833
507.394671
323.197842
213.853717
112.590790
66.805482
38.398504
37.864447
55.122972
75.438619
103.526711
122.135878
141.220689
147.692561
144.392848
132.185817
109.932423
91.569424
64.368844
47.164559
31.253695
23.361444
18.996596
17.535686
16.535521
17.114878
17.479658
17.382503
17.589927
17.859936
18.404722
18.154979
18.620491
18.383861
17.935634
18.134713
17.820597
18.379688
17.928481
17.060637
17.531514
17.288923
17.452836
17.376542
17.015934
17.268658
16.581416
16.396642
16.031861
16.194582
15.921593
15.613437
15.627742
15.756488
14.890432
14.661551
15.010834
14.527440
14.575720
14.446974
14.517903
##ZVALUE=290
0.866652
0.765920
0.878572
0.890493
0.803471
0.799894
0.832677
0.624657
0.887513
1.029968
0.957847
0.970960
0.912547
0.922680
1.108646
1.051426
1.057982
1.032948
0.908971
0.981688
1.177788
1.140833
1.213551
1.450777
1.596808
1.848936
2.730489
8.628964
43.795705
99.036694
149.649978
342.913866
494.885445
684.608817
786.602497
854.982734
838.996768
741.256475
621.039867
439.847708
310.392976
172.489882
94.684958
38.771629
26.445985
35.219789
49.190521
74.560642
94.531775
120.292902
136.035681
144.372582
144.602656
130.089521
113.271475
86.401701
67.399740
46.950579
36.899447
26.610494
23.155808
20.496845
20.694733
19.463897
20.135641
19.694567
20.476580
20.582676
20.383000
20.486712
20.056963
20.628572
20.155907
20.604730
20.230412
19.395947
19.862652
19.385815
18.675923
18.592477
18.563867
17.373562
17.231703
17.282963
17.324686
16.786456
16.379952
16.189814
15.571713
16.131997
15.625954
15.528798
14.945865
14.485717
14.761686
14.625788
##ZVALUE=295
0.791550
0.835657
0.859499
0.818968
0.946522
0.813603
0.888705
0.829697
0.863671
0.837445
0.834465
0.864863
1.044869
0.932813
0.833869
0.881553
1.113415
0.981688
1.258850
1.142621
1.016855
1.139641
1.169443
0.999570
1.117587
1.377463
1.419783
1.679659
1.991987
3.145933
18.392801
55.995584
154.649615
269.926786
457.533002
604.841709
761.264563
840.283632
857.979655
814.675689
682.786703
557.412505
366.756916
245.137811
122.265816
63.395500
28.098822
22.760630
32.473803
46.725869
71.573853
90.960860
117.663741
132.053494
143.068433
140.258670
127.814412
110.926628
87.799430
70.611835
50.759912
39.601922
28.383732
25.747418
22.246838
21.559596
21.823645
22.032857
21.601915
21.541715
21.600723
21.522641
21.360517
21.293759
20.906925
20.709634
20.654798
20.634532
19.975901
20.144582
18.985868
19.270778
18.405914
18.408895
17.406940
17.682910
17.263889
16.656518
16.395450
16.439557
15.608668
15.973449
15.511513
14.749765
14.506578
14.812946
##ZVALUE=300
0.779629
0.714660
0.932813
0.792742
0.652671
0.949502
0.807643
0.791550
0.824928
0.721812
0.747442
0.783801
0.978708
0.957847
0.903606
0.973940
0.906587
0.958443
0.930429
0.937581
0.909567
1.021624
1.002550
1.141429
1.233816
1.091957
1.168847
1.112819
1.423955
1.476407
1.522899
1.875758
6.556511
24.367571
80.903769
152.247548
300.232768
434.831977
608.624816
706.487894
773.108006
762.041807
661.054850
539.611578
364.647508
236.323476
121.763945
66.026449
28.475523
19.430518
22.983551
31.055808
46.759844
64.826608
89.311004
108.666420
129.631758
136.915445
135.493875
129.581690
109.390616
92.750788
68.907738
55.013895
39.370656
31.466484
25.792718
23.901463
22.522807
22.441745
21.674633
21.890998
21.810532
21.600723
21.150708
20.523667
20.495653
20.556450
19.940734
19.809604
20.002723
19.006729
19.016862
18.726587
18.427968
17.852783
17.462969
17.029643
16.482472
16.735792
15.938878
16.041994
15.540719
15.173554
15.023947
14.639497
##ZVALUE=305
0.653863
0.498891
0.621676
0.483990
0.633597
0.642538
0.585914
0.599623
0.589490
0.773668
0.617504
0.659823
0.762939
0.675917
0.799894
0.697970
0.707507
0.742674
0.799894
0.691414
0.835657
0.846982
0.910759
0.852942
0.898838
0.940561
0.940561
0.922680
0.961423
1.102686
1.265407
1.326799
1.208782
1.616478
2.285838
13.106465
35.838485
101.858974
182.161927
333.324671
461.943746
626.744628
714.888573
745.239854
698.532462
557.729006
435.778499
279.797912
177.336931
83.132982
44.557452
21.704435
18.337965
22.693872
31.036735
47.484636
64.710975
88.092685
104.914904
124.703646
131.277442
129.417777
121.947527
105.106831
87.889433
65.241456
50.780773
37.850738
30.391812
24.837852
22.299886
21.886826
20.794868
20.825863
20.485520
20.103455
19.990802
19.767880
19.766688
19.890666
19.219518
19.035935
18.817782
18.658638
18.179417
18.056631
17.757416
16.910434
16.805530
16.407967
15.776753
15.811920
15.669465
14.878511
14.736652
14.780760
##ZVALUE=310
0.613928
0.563860
0.497699
0.640750
0.623465
0.700951
0.621676
0.745654
0.687838
0.593662
0.655651
0.660419
0.687838
0.676513
0.739694
0.656843
0.776649
0.812411
0.830889
0.725985
0.862479
0.825524
0.784993
0.877976
0.846982
1.117587
0.888705
0.999570
0.934601
0.926852
0.968575
1.109838
1.110435
1.165867
1.316667
1.483560
1.697540
5.376935
17.792583
59.877634
118.658543
243.726969
369.166732
540.775657
652.544498
734.834671
726.605654
633.450747
525.734425
354.210734
237.809420
123.232603
69.294572
30.412674
19.063950
17.904639
21.612644
30.448437
41.604638
59.682727
75.612664
97.746849
112.131834
122.563839
123.854876
115.667582
102.615952
83.933473
66.875815
48.041940
36.804676
27.973652
23.826957
20.258427
19.598603
18.644929
18.490553
19.052625
18.659830
18.501878
18.482804
17.990470
18.056631
18.052459
17.534494
17.739534
17.180443
16.740561
16.773939
15.835762
15.734434
15.606880
15.465617
15.367866
14.882684
14.208555
##ZVALUE=315
0.640750
0.588894
0.604987
0.680685
0.557899
0.640750
0.645518
0.614524
0.706911
0.664592
0.640750
0.711679
0.613928
0.682473
0.732541
0.932813
0.648499
0.515580
0.685453
0.862479
0.648499
0.732541
0.875592
0.737906
0.781417
0.916719
0.974536
0.963807
0.884533
1.080632
1.008511
1.025796
1.082420
0.855923
1.217723
1.176596
1.160502
1.437664
1.626611
2.784729
8.762479
37.382841
84.908605
191.179514
303.830504
476.489663
592.116714
701.388717
728.389025
676.050782
582.426786
420.991778
298.378468
163.460970
93.355775
39.655566
21.427870
15.749931
16.335845
20.625591
26.891828
40.199757
52.844882
72.258711
88.799000
106.746554
114.152431
114.538670
109.120607
93.885660
78.310966
60.162544
47.378540
33.656955
26.694536
20.840764
18.585920
17.840862
17.306805
17.460585
17.425418
17.053485
16.775727
16.980767
16.709566
16.129613
16.181469
16.624928
15.894771
16.235709
15.808940
15.446544
15.737414
14.545918
15.071630
15.080571
##ZVALUE=320
0.581741
0.823736
0.710487
0.754595
0.578761
0.729561
0.666976
0.621676
0.548959
0.663996
0.547767
0.486970
0.595450
0.582933
0.625849
0.684857
0.691414
0.732541
0.695586
0.658631
0.694990
0.850558
0.878572
0.718832
0.615716
0.850558
0.841618
0.809431
0.719428
0.830889
0.871420
0.832677
0.991821
1.015663
0.908971
1.084805
0.998974
1.056790
1.216531
1.153946
1.526475
1.785755
4.413724
21.201968
52.326918
134.731531
228.918791
383.021832
506.237745
637.223721
697.034597
695.472956
628.193021
485.519767
357.869864
202.238560
118.185878
53.696632
28.114915
14.619827
12.784600
13.741851
16.324520
23.225546
31.809807
47.114491
62.755942
83.086491
95.987916
105.847716
107.651949
100.016594
89.662671
71.506500
57.919621
41.413903
31.937957
23.421645
19.137859
16.930699
16.278625
15.776753
15.688539
15.623569
15.651584
15.620589
15.709996
15.251637
15.298724
15.014410
15.088916
15.033484
14.485717
14.681816
14.380813
14.378428
##ZVALUE=325
0.560880
0.596642
0.774860
0.704527
0.736713
0.764728
0.783801
0.766516
0.606775
0.654459
0.803471
0.732541
0.808835
0.765920
0.747442
0.847578
0.722408
0.743866
0.595450
0.622869
0.600815
0.655651
0.823736
0.854731
0.684857
0.784993
0.879765
0.764728
0.738502
0.730753
0.812411
0.822544
0.801682
0.829697
0.956655
0.990629
0.917912
0.920892
1.096725
1.118779
1.291633
1.367927
1.343489
1.482964
2.480745
13.669729
35.386682
94.370842
169.124603
309.355855
431.867838
580.970645
656.633973
689.025521
643.461943
515.060425
391.052961
235.189795
146.240592
68.830848
35.303831
14.748573
10.416508
10.221601
10.967851
14.510751
19.920468
30.319691
42.260885
61.130524
74.899793
89.087486
96.702576
99.245906
93.017817
79.890490
67.065954
50.856471
39.705634
27.752519
22.529960
17.687678
16.076565
14.829636
14.774799
14.601946
14.605522
14.430881
14.265776
14.469624
14.377832
14.330745
13.984442
13.801455
13.975501
13.812780
##ZVALUE=330
0.685453
0.444651
0.558496
0.633597
0.613928
0.640750
0.636578
0.586510
0.542998
0.534654
0.621676
0.666976
0.641942
0.674725
0.737906
0.576973
0.631809
0.705719
0.703931
0.687838
0.729561
0.730753
0.639558
0.790954
0.873804
0.743866
0.841618
0.643730
0.685453
0.667572
0.684857
0.664592
0.847578
0.674725
0.825524
0.857711
0.946522
0.854731
0.951886
0.858903
1.030564
1.159906
1.195669
1.054406
1.221895
1.405478
1.777411
6.027818
18.406510
61.527491
118.685961
237.600803
350.335836
508.316755
603.016615
669.182539
647.373796
555.003881
446.146727
290.120840
189.381838
90.749860
48.470497
19.661784
10.916591
8.568764
8.900762
10.279417
12.519956
19.406676
27.087927
40.465593
54.375529
71.566701
82.863569
91.339946
92.744827
87.177753
77.337623
61.853528
49.960613
35.266876
28.117895
21.817684
17.999411
15.428662
14.320612
13.790727
13.800859
14.075637
13.596416
13.900995
13.597608
13.616681
13.212562
13.407469
##ZVALUE=335
0.583529
0.533462
0.517964
0.518560
0.594854
0.648499
0.641942
0.610948
0.586510
0.471473
0.598431
0.516772
0.745654
0.648499
0.687838
0.677705
0.766516
0.685453
0.509620
0.586510
0.596642
0.530481
0.786781
0.594854
0.831485
0.820756
0.751615
0.616908
0.687838
0.623465
0.788569
0.735521
0.871420
0.600815
0.583529
0.829697
0.898838
0.882745
0.775456
1.019835
0.997782
0.738502
0.952482
1.073480
1.068711
1.060963
1.186728
1.239777
1.417994
3.069639
9.588599
37.626624
79.266429
177.652836
282.342434
442.994833
552.067757
640.913844
650.219917
582.118630
493.061543
339.576602
231.304765
125.425458
67.108870
25.342703
12.781620
8.625984
8.336902
8.775592
10.003448
13.896823
18.052459
28.570890
38.138628
53.545833
65.859556
79.620481
86.253881
86.855888
82.798600
70.698857
61.195493
47.836900
38.231611
27.501583
22.093654
17.573833
15.695691
14.264584
13.500452
13.550520
13.459921
13.138652
13.310909
13.136864
##ZVALUE=340
0.625849
0.474453
0.669956
0.643730
0.634789
0.599623
0.679493
0.684857
0.624657
0.700951
0.728965
0.641942
0.654459
0.511408
0.576973
0.592470
0.577569
0.544786
0.618696
0.619888
0.591874
0.505447
0.645518
0.488758
0.737906
0.624657
0.689626
0.584722
0.761747
0.652671
0.767708
0.775456
0.601411
0.828505
0.750422
0.759959
0.733733
0.794530
0.933409
0.944734
0.798702
0.755787
0.932813
0.849962
0.979900
0.986457
1.054406
1.020432
1.116991
1.114607
1.252890
1.641512
6.280541
19.361973
61.990619
121.864676
246.558785
355.203748
495.229959
579.492450
629.012585
609.961748
512.103438
407.813787
259.976983
165.047646
79.404712
40.176511
14.670491
9.062886
8.303523
8.528829
8.963943
9.923577
13.132691
17.445683
26.255846
36.074519
51.423907
62.501431
75.353980
81.198812
81.544518
78.188777
69.217682
59.757829
46.556592
37.074685
26.828647
21.433830
16.904473
14.693737
13.105869
12.957454
12.414455
12.580752
##ZVALUE=345
0.484586
0.539422
0.531673
0.610948
0.465512
0.632405
0.639558
0.517964
0.598431
0.661612
0.512600
0.411868
0.518560
0.469685
0.629425
0.562668
0.524521
0.703931
0.570416
0.690818
0.606775
0.664592
0.605583
0.822544
0.746846
0.705719
0.738502
0.724792
0.785589
0.614524
0.770688
0.489950
0.743866
0.688434
0.647902
0.713468
0.714660
0.756979
0.773668
0.716448
0.749826
0.732541
0.937581
0.931621
1.032948
0.927448
0.901818
0.950694
0.899434
0.935793
1.113415
1.292825
1.280904
1.239777
2.508759
13.150573
35.273433
93.311667
166.968703
297.516584
405.304432
532.998443
593.282580
600.938797
551.399589
434.067845
323.782563
187.606812
109.407902
47.930479
23.383498
10.535717
8.612871
8.280873
8.340478
8.832812
9.817481
12.645721
16.396642
24.930835
33.425689
46.676993
56.981444
68.712831
74.311495
75.684786
73.655844
65.831542
57.338476
45.908689
36.379695
26.213527
21.037459
16.600490
14.441609
12.850761
##ZVALUE=350
0.633597
0.575781
0.489950
0.653863
0.700951
0.673532
0.567436
0.688434
0.621676
0.605583
0.590682
0.616908
0.412464
0.504851
0.646710
0.715852
0.486970
0.738502
0.576973
0.559688
0.454783
0.562668
0.590682
0.627637
0.549555
0.761747
0.754595
0.587702
0.714660
0.589490
0.792742
0.609756
0.802875
0.712872
0.799894
0.617504
0.669956
0.642538
0.626445
0.599623
0.762939
0.548959
0.685453
0.886917
0.782609
0.920892
0.856519
0.676513
0.742674
0.924468
0.925660
0.987649
1.021624
1.105666
1.062751
1.249909
1.752973
7.127523
20.470619
62.500834
117.900968
232.972503
335.366726
464.271903
544.760823
585.603714
561.046004
465.584993
360.249877
218.847990
135.923624
65.459609
31.460524
12.279749
8.733869
8.068681
8.287430
8.042455
8.403659
9.759665
11.455417
16.478896
21.842718
30.573606
39.201975
51.481724
60.135722
67.574978
69.326758
67.668557
61.838627
52.089691
44.234991
32.884479
26.845932
19.691586
##ZVALUE=355
0.516772
0.548959
0.551939
0.667572
0.564456
0.568628
0.556707
0.532866
0.609756
0.549555
0.556707
0.549555
0.604987
0.578761
0.623465
0.476837
0.549555
0.637770
0.743866
0.678897
0.605583
0.633597
0.692606
0.721812
0.528693
0.627637
0.723600
0.681877
0.658631
0.610948
0.749826
0.692606
0.732541
0.673532
0.458956
0.484586
0.650883
0.686646
0.875592
0.731945
0.737906
0.777841
0.667572
0.781417
0.644922
0.751615
0.852942
0.782609
0.776649
0.796914
0.741482
1.047850
0.908971
0.947714
1.064539
0.959635
1.112819
1.262426
1.464486
3.313422
10.759830
41.201711
82.500577
172.619820
271.082520
412.217975
499.113798
562.363863
561.573505
483.427644
395.141840
264.404416
168.467760
77.292919
38.733482
14.827847
8.950830
7.540584
7.455945
7.857680
7.806420
8.436441
9.184480
10.888577
14.087558
19.506812
26.013851
36.160946
44.059753
53.662658
60.264468
64.023733
62.547922
57.719946
51.502585
40.798783
##ZVALUE=360
0.515580
0.623465
0.615716
0.615716
0.581741
0.578761
0.708699
0.580549
0.509620
0.464916
0.774860
0.576973
0.670552
0.556707
0.530481
0.531673
0.535846
0.481606
0.638962
0.551939
0.701547
0.633597
0.647902
0.618696
0.705719
0.593662
0.547767
0.704527
0.591874
0.629425
0.564456
0.705719
0.791550
0.853539
0.756979
0.660419
0.720620
0.746846
0.676513
0.619888
0.845790
0.832677
0.905991
0.927448
0.832677
0.605583
0.699759
0.817776
0.693798
0.882745
0.963807
0.872612
0.866652
1.043677
0.975728
0.865459
1.023412
0.924468
1.040697
1.181960
1.311898
1.852512
4.824996
21.132827
51.319003
126.366615
207.763910
333.780646
434.707999
529.003739
551.726818
508.480668
426.415801
290.988684
198.299885
104.503632
56.583881
22.201538
11.086464
7.463694
7.101893
6.978512
7.216930
7.267594
7.725954
8.147955
9.469986
12.002587
15.514493
22.029877
28.957725
39.434433
46.907663
54.433942
56.919456
57.505965
##ZVALUE=365
0.503659
0.519753
0.541806
0.498891
0.562668
0.586510
0.685453
0.652671
0.475645
0.628829
0.544786
0.626445
0.508428
0.663996
0.537634
0.615716
0.534654
0.633597
0.645518
0.511408
0.536442
0.580549
0.563860
0.523925
0.613928
0.623465
0.694990
0.720620
0.548959
0.777841
0.550747
0.671744
0.639558
0.506639
0.597835
0.616908
0.624657
0.608563
0.576973
0.786781
0.798702
0.819564
0.693798
0.839829
0.947714
0.841618
0.888705
0.924468
0.797510
0.844598
0.827909
0.630617
0.791550
0.827909
0.904799
0.844598
0.904799
0.965595
0.919700
1.100898
1.120567
1.151562
1.137853
1.397729
2.553463
11.940002
32.025576
83.636642
153.277516
280.399919
374.386907
478.355885
528.147817
517.231822
458.086729
336.529016
241.155624
134.908557
76.436996
30.658841
14.649630
7.563829
6.567836
6.533861
6.739497
6.788969
6.765723
7.095933
7.337928
8.155704
10.069609
14.139414
18.108487
25.550723
31.882524
40.972829
##ZVALUE=370
0.662804
0.576973
0.556707
0.568628
0.600815
0.554919
0.477433
0.630617
0.645518
0.534654
0.674725
0.455976
0.529885
0.502467
0.570416
0.549555
0.478625
0.606775
0.542998
0.576973
0.594854
0.636578
0.643730
0.575781
0.558496
0.692606
0.697970
0.668764
0.412464
0.606775
0.573993
0.419617
0.633597
0.626445
0.634789
0.751615
0.603795
0.558496
0.555515
0.568628
0.634789
0.546575
0.685453
0.649691
0.720620
0.765920
0.656843
0.736713
0.710487
0.742674
0.751615
0.589490
0.773668
0.744462
0.736713
0.858903
0.861883
0.949502
0.937581
0.949502
1.138449
1.062751
1.109838
1.045465
1.122952
1.292825
1.851916
5.162954
24.283528
58.150887
135.269761
213.011503
334.890485
427.752733
509.776473
523.349643
471.591949
390.303731
263.261795
172.670484
83.576441
44.699907
18.442869
9.818673
6.434917
6.179810
6.128550
6.318688
6.196499
6.257892
6.268620
6.666780
7.448792
8.865595
12.362599
15.996695
##ZVALUE=375
0.444651
0.546575
0.455976
0.444651
0.537634
0.579953
0.521541
0.544786
0.621676
0.632405
0.593662
0.469685
0.511408
0.592470
0.621676
0.641942
0.613928
0.434518
0.522733
0.504851
0.678897
0.700951
0.606775
0.617504
0.586510
0.538826
0.505447
0.572801
0.649691
0.564456
0.690818
0.648499
0.589490
0.635982
0.620484
0.624657
0.513792
0.680685
0.567436
0.615716
0.608563
0.658631
0.596642
0.572801
0.797510
0.790954
0.679493
0.586510
0.763535
0.678897
0.683665
0.588894
0.708699
0.734925
0.822544
0.703931
0.838637
0.885725
0.849962
0.791550
0.707507
0.757575
0.860691
0.901818
0.876784
0.797510
0.968575
1.198649
1.332760
3.000498
14.367700
34.789443
89.218616
159.012675
276.447535
372.000933
477.416515
511.135459
487.415791
425.547957
311.738849
220.912695
123.378634
70.394874
29.192567
14.153719
7.046461
5.665421
5.669594
5.541444
5.920529
5.701780
5.744696
5.981922
5.988479
6.827712
##ZVALUE=380
0.761747
0.655651
0.759959
0.752807
0.583529
0.821948
0.781417
0.653863
0.601411
0.645518
0.693798
0.861883
0.715852
0.872612
0.707507
0.703931
0.797510
0.726581
0.687838
0.659823
0.725985
0.785589
0.681877
0.763535
0.805855
0.775456
0.808835
0.821948
0.784993
0.791550
0.800490
0.581741
0.816584
0.889897
0.772476
0.820756
0.831485
0.902414
0.809431
0.674725
0.880957
0.806451
0.774860
0.840425
0.667572
0.729561
0.792742
0.749826
0.748634
0.957847
0.804663
0.847578
0.913739
0.882745
0.884533
0.901818
0.893474
0.906587
0.871420
0.899434
0.933409
0.877976
1.062751
0.980496
1.025796
1.053810
1.186728
1.236796
1.240969
1.401901
1.466870
2.127886
6.041527
26.690960
61.224699
140.934587
223.792791
344.087481
432.239771
501.098633
504.351854
436.180830
361.890793
254.403949
173.096657
87.191463
46.341419
18.020868
9.294748
5.863905
5.581975
5.541444
5.609989
5.424619
5.604625
5.705953
##ZVALUE=385
0.592470
0.413656
0.497699
0.659823
0.550747
0.506639
0.433922
0.325441
0.299811
0.529885
0.481606
0.504851
0.464916
0.519753
0.617504
0.551939
0.447631
0.685453
0.574589
0.582933
0.505447
0.547767
0.601411
0.533462
0.556707
0.348687
0.515580
0.698566
0.730753
0.679493
0.619888
0.550747
0.582933
0.489950
0.605583
0.558496
0.553727
0.710487
0.504851
0.619888
0.590682
0.532866
0.528693
0.587702
0.590682
0.663996
0.695586
0.669956
0.608563
0.694990
0.520945
0.663996
0.580549
0.735521
0.658631
0.505447
0.764728
0.447631
0.632405
0.700951
0.657439
0.770688
0.724792
0.743866
0.851750
0.758767
0.769496
0.713468
0.808835
1.044869
1.015663
1.119971
1.090765
1.398921
3.039837
14.857650
37.946701
94.752908
167.122483
288.285613
380.682945
469.836593
494.127870
470.510721
412.311554
305.193663
219.422579
121.891499
71.268678
30.678511
13.716817
5.967617
5.034804
4.653931
4.710555
4.744530
##ZVALUE=390
0.478625
0.467896
0.370741
0.544786
0.674725
0.268817
0.379682
0.453591
0.555515
0.523925
0.416636
0.565648
0.366569
0.619888
0.564456
0.447631
0.562668
0.536442
0.572801
0.479817
0.473857
0.430942
0.401735
0.426769
0.497699
0.553727
0.580549
0.556707
0.559688
0.577569
0.609756
0.517964
0.624657
0.663996
0.638962
0.746846
0.583529
0.692606
0.668764
0.673532
0.778437
0.581741
0.655651
0.710487
0.648499
0.656843
0.614524
0.399947
0.567436
0.475645
0.658631
0.687838
0.820756
0.584722
0.615716
0.563860
0.723600
0.563860
0.799894
0.738502
0.687838
0.742674
0.746846
0.772476
0.604987
0.640750
0.683665
0.909567
0.955462
1.019835
0.970960
0.936985
0.887513
1.151562
1.084805
1.165867
1.721978
8.046627
23.497939
69.666505
130.064487
242.711902
331.746936
436.286926
482.265949
494.417548
452.755690
358.945727
275.833607
169.691443
100.023746
43.225884
21.275878
8.477569
5.225539
4.563928
##ZVALUE=395
0.479817
0.549555
0.439882
0.596642
0.306964
0.444651
0.396967
0.503659
0.429749
0.466704
0.463724
0.503659
0.452995
0.451803
0.563860
0.515580
0.497699
0.587702
0.426769
0.565648
0.626445
0.483990
0.384450
0.626445
0.660419
0.485778
0.542998
0.440478
0.549555
0.714660
0.649691
0.590682
0.635982
0.649691
0.634789
0.638962
0.592470
0.617504
0.629425
0.785589
0.708699
0.711679
0.625849
0.635982
0.714660
0.688434
0.670552
0.615716
0.683665
0.647902
0.668764
0.689626
0.833869
0.581741
0.620484
0.626445
0.811815
0.704527
0.662804
0.684857
0.510812
0.677705
0.646710
0.713468
0.599623
0.575781
0.815988
0.688434
0.888705
0.910759
0.924468
1.067519
0.950694
1.009703
0.963807
0.954866
0.921488
1.127720
1.387596
4.820824
16.054511
52.582622
98.688006
185.177922
271.466970
390.360951
459.718704
505.103469
491.289496
417.306423
330.699682
206.714869
130.303502
59.034824
29.118657
10.898709
##ZVALUE=400
0.500679
0.511408
0.632405
0.634789
0.499487
0.456572
0.518560
0.480413
0.453591
0.490546
0.465512
0.465512
0.562668
0.510812
0.418425
0.463724
0.598431
0.580549
0.561476
0.530481
0.563860
0.500679
0.573993
0.633597
0.450611
0.622869
0.507832
0.621676
0.708699
0.558496
0.694990
0.506639
0.599623
0.702739
0.791550
0.603795
0.595450
0.893474
0.833869
0.702739
0.740886
0.697970
0.515580
0.774860
0.638962
0.655651
0.720620
0.622869
0.665784
0.533462
0.747442
0.549555
0.714660
0.733733
0.639558
0.626445
0.763535
0.731945
0.806451
0.501871
0.457764
0.710487
0.641942
0.718832
0.785589
0.634789
0.720620
0.856519
0.753999
0.889897
0.911951
0.870824
0.835657
0.983477
0.886917
1.040697
0.819564
0.978708
0.906587
1.049638
1.271963
2.659559
8.291602
29.635429
63.283443
140.866637
222.828984
341.900587
418.944955
483.433008
490.514636
431.967974
360.758901
249.976516
167.640448
87.330937
##END
