##TITLE=QP00602
##FORMAT=SPECTACLE-ASCII V-1.2
##DATA TYPE=ULTRAVIOLET SPECTRUM
##SECOND TYPE=ULTRAVIOLET SPECTRUM
##DATE=03/05/18
##TIME=12:55:10
##SPECTROMETER/DATA SYSTEM=SPECTACLE
##XUNITS=NM EM
##YUNITS=ENERGY
##YFACTOR=1
##FIRSTX=220
##LASTX=410
##NPOINTS=96
##3DDATA=Equidistant
##ZUNITS=NM EX
##FIRSTZ=210
##LASTZ=400
##ZPOINTS=39
##XYDATA=(Y..Y)
##ZVALUE=210
2.070665
2.454519
2.057552
2.003908
2.398491
2.508759
3.131628
2.408624
2.235770
2.091527
2.605915
1.852512
2.706647
2.493858
2.433658
2.401471
2.767444
2.662539
2.889633
2.893806
2.755523
2.869964
2.638698
3.523827
3.001690
3.939867
3.451705
3.754497
3.050566
4.085898
3.771782
4.231930
3.657937
3.922582
3.693700
4.618764
4.475713
4.602671
4.518628
4.908442
4.277825
4.917979
5.334616
4.353523
5.973577
4.315972
5.074739
5.197525
5.349517
5.342960
5.001426
4.998446
5.503893
4.192591
5.088449
5.528927
5.854964
5.700588
5.593896
5.178452
5.825758
5.951524
5.755424
6.342530
5.357862
6.245971
7.398725
6.903410
8.200407
10.572672
12.460947
11.503696
14.568567
16.436577
18.399954
17.376542
19.047856
19.254684
19.527674
16.956925
16.850829
15.120506
13.054609
10.726452
9.803772
9.777546
6.773472
7.287860
7.093549
6.245971
6.195903
6.960630
7.078648
5.757809
5.999804
6.991625
##ZVALUE=215
5.421638
5.337596
5.700588
4.982948
5.257726
4.356503
4.688501
6.009936
5.194545
5.085468
4.617572
4.569888
4.178882
3.595948
3.234744
2.438426
2.672672
2.366900
3.548861
2.935529
3.126860
2.937913
3.459454
3.662705
3.763437
3.918409
4.121661
3.935695
3.523827
4.156828
5.058646
4.175901
4.662871
4.473925
4.592538
4.098415
4.295707
3.708601
4.591942
5.289912
4.745722
5.093813
4.918575
4.695654
4.838705
5.598664
5.238652
5.198717
6.738901
4.747510
5.685687
5.888939
5.712509
5.658865
5.422831
6.338954
5.377531
5.714893
6.196499
5.946755
5.708933
5.697608
5.937815
6.364584
6.741881
6.973743
7.116795
7.631779
8.689761
10.364652
10.748506
11.635423
13.287663
15.931726
17.619729
18.357635
18.530488
18.323660
17.580986
18.460751
17.251968
14.447570
14.144778
11.801720
11.006594
9.069443
8.288622
7.850528
7.256866
6.339550
6.944537
6.921887
6.474853
6.987453
5.857944
8.071661
##ZVALUE=220
17.503500
16.389489
20.750761
22.871494
17.406940
16.818643
13.473630
11.601448
9.929538
10.210872
11.594892
10.746717
11.456609
10.393858
7.880926
6.597638
4.985929
3.808737
3.883839
2.180934
2.926588
2.537966
2.487898
3.222823
3.621578
3.800988
3.418922
3.556609
3.686547
4.470944
3.641844
4.169941
3.686547
5.071759
4.136562
4.045963
5.137920
5.272627
4.475713
4.904866
5.022883
5.203485
5.212426
5.533695
4.323721
5.913973
5.756617
5.168915
5.415678
5.892515
5.673766
6.522536
5.721450
6.479621
6.923676
6.022453
6.230474
6.139874
6.413460
7.158518
6.422997
6.168485
6.603599
7.504821
6.591678
7.380843
7.320642
8.843541
9.411573
11.136532
12.296438
14.731884
15.603900
20.020604
20.605922
22.650957
22.574663
24.105906
24.911761
23.786426
22.241473
20.062923
18.114448
14.920831
12.799501
10.933876
10.084510
9.509921
9.707808
8.256435
7.581711
8.476973
8.552670
7.824898
8.871555
7.730722
##ZVALUE=225
32.962561
35.457611
43.952465
60.484409
65.523982
70.127845
63.579679
49.429536
40.623546
30.958652
23.909807
22.168756
25.306940
25.064945
23.888946
23.755431
19.780993
16.351938
12.483597
9.660721
5.683899
6.062984
5.162954
4.311800
4.970431
4.803538
5.281568
5.252957
5.079508
5.094409
4.993677
5.363822
5.742908
6.208420
6.375909
6.154776
6.328821
6.386638
6.554723
6.759763
6.579757
6.549954
6.694794
7.687807
7.580519
6.798506
7.297993
6.973743
7.355809
7.802844
7.431507
8.768439
7.785559
8.840561
8.635521
8.452535
9.082556
10.132790
8.953810
9.158850
9.360909
10.488629
10.204911
10.081530
10.868907
10.770559
12.254715
13.047457
13.817549
17.165542
18.529892
21.091700
23.623705
25.260448
25.608540
28.093457
26.848912
27.924776
28.523803
27.597547
26.190877
25.431514
21.564960
20.620823
17.377734
14.818907
15.662909
14.941692
13.340712
12.078881
12.800694
13.760924
13.210773
14.134645
13.300776
13.196468
##ZVALUE=230
34.170747
35.107732
61.951876
103.269815
132.732987
165.866613
185.390711
190.952420
180.909634
151.879787
105.719566
75.907707
50.547719
46.252608
46.305656
49.863458
51.558614
49.880743
47.530532
35.557747
29.520988
20.213723
13.788939
8.805990
6.736517
6.206632
6.199479
6.042719
5.647540
6.755590
6.617904
7.370710
6.757975
7.193685
7.016659
7.546544
7.681847
7.733703
7.683635
8.089542
7.663965
8.446574
9.089708
8.619428
8.960962
7.763505
8.790493
9.181499
9.275675
8.600950
9.568930
10.550618
8.952618
10.212660
10.276437
11.188984
10.303855
9.984970
10.072589
10.905862
11.990666
11.400580
11.085868
12.242794
12.871623
12.053847
15.740991
12.955666
16.720891
17.490983
20.205975
23.595691
25.692582
28.402805
29.321909
30.654669
27.766824
26.966929
27.618408
25.281906
24.719834
23.147464
21.419525
22.166967
20.804405
20.931959
20.582676
19.624829
18.237829
19.963980
18.090606
16.832948
19.528866
16.920567
16.355515
17.173886
##ZVALUE=235
12.476444
13.105869
37.947893
67.728758
105.689764
184.550881
247.886777
333.599448
359.817743
361.446738
341.289639
258.837938
200.377703
134.035945
97.116828
77.341795
74.046850
81.162453
83.768964
84.875822
78.557730
67.212582
50.883889
38.001537
24.274588
16.643405
10.738969
8.245707
6.238818
6.472468
6.463528
6.017685
5.999804
7.267594
7.339716
7.200837
7.114410
7.486939
7.272959
6.996989
7.266998
7.306933
8.237958
7.925630
7.811785
7.964969
6.889701
9.078979
7.450581
9.177923
8.873940
8.840561
9.692907
9.223819
9.621978
10.428429
10.649562
9.762645
10.133982
11.739731
10.723472
11.863708
12.399554
14.375448
12.445450
15.398860
15.414953
17.312765
18.298626
21.375418
21.974444
26.071668
26.720762
28.908849
30.893683
31.360984
32.348633
31.603575
30.919909
30.856729
29.754639
27.942657
27.628541
26.146770
23.753643
24.394989
24.942756
23.546815
24.517775
23.266673
23.912787
24.526715
23.000836
25.399923
23.340583
21.903515
##ZVALUE=240
1.955628
2.361536
4.908442
16.615987
34.846663
81.739426
137.282610
245.790482
344.707966
433.638692
513.705611
530.633926
486.856699
408.721566
299.746990
210.520625
134.334564
103.078485
94.213486
99.959970
108.974576
112.259984
112.835765
101.150870
84.135532
59.476495
44.332743
29.505491
19.525886
10.719895
8.746982
6.511807
6.033778
6.999969
6.620884
6.600618
6.174445
5.930662
6.674528
6.689429
6.595850
6.255507
6.806850
7.757545
7.857680
8.140802
6.665587
7.337928
7.692575
8.157492
7.951856
7.623434
8.279681
8.792877
10.322928
10.832548
9.947419
9.595752
10.446906
11.578798
12.113452
12.655854
12.411475
13.489723
14.788508
15.635490
17.966628
18.064976
19.390583
21.515489
24.658442
26.816726
29.109716
32.745600
33.069849
33.369660
33.594966
34.167767
32.789707
33.470988
32.455921
33.074617
32.996535
30.099750
30.872822
31.168461
32.091737
29.781461
29.610991
30.125976
29.421449
28.587580
30.362606
27.971864
30.135512
28.926730
##ZVALUE=245
1.536608
1.949668
1.845956
2.019405
2.886653
10.782480
26.995540
78.149438
139.790773
259.573460
381.397605
520.022511
601.820946
638.368726
615.966916
519.716740
417.333841
283.055902
198.894739
125.690699
101.151466
98.104477
110.732913
124.732852
130.223632
126.279593
108.607411
95.867515
68.384409
49.006939
32.764673
20.465851
12.935996
8.384585
7.133484
5.928874
5.622506
6.513596
7.317662
6.409883
6.724596
6.234646
6.668568
7.027984
7.245541
7.352829
7.216930
7.219911
7.341504
7.729530
7.638931
7.192492
7.754564
8.254647
8.366704
9.105802
9.515882
9.600520
9.726882
9.472966
10.368824
11.429787
11.704564
12.110472
13.809800
13.895631
14.049411
16.986728
17.992854
18.994808
22.011995
23.912787
25.720596
29.734969
29.202700
31.393766
30.009747
30.050874
30.302405
30.061603
30.803680
32.407641
31.618476
28.427839
28.702617
28.995872
29.457808
27.668476
28.912425
29.836893
29.587746
28.207898
28.388500
29.598475
29.069781
28.259754
##ZVALUE=250
1.623631
1.720786
1.551509
1.534820
1.550913
1.804829
2.304912
8.102655
22.028685
48.617721
126.178861
227.483511
399.426818
528.572798
681.419969
758.415461
756.791830
697.541833
633.821487
434.440970
299.243927
169.937611
115.750432
99.338889
101.528764
124.359727
132.907629
137.882829
135.029554
115.354657
101.482868
75.410604
53.246617
33.739805
22.707582
12.193918
8.519888
6.516576
6.247759
6.347895
6.343722
5.323887
6.291866
6.312728
6.250739
6.908774
6.397963
7.048845
7.570982
7.500648
6.640553
7.205606
6.880760
7.318854
8.222461
8.116961
8.406639
8.677840
9.137988
8.407831
9.018779
10.724664
11.360645
11.253953
12.364984
12.653470
13.375878
14.658570
15.277863
17.935634
19.438863
21.215677
23.562908
25.966763
27.281642
27.156472
28.750896
27.517676
29.771924
27.155876
28.550625
26.696920
28.773546
27.418733
28.653741
27.291775
28.128624
27.418733
27.578473
27.667880
28.484464
29.122829
27.899742
28.816462
28.643608
29.235482
##ZVALUE=255
1.535416
1.586676
1.397729
1.447797
1.516938
1.315475
1.947880
1.775622
2.176762
4.237890
18.436909
44.182539
93.928576
224.426985
376.192927
620.447993
810.743570
990.027785
1016.140580
1005.108953
869.465470
690.239668
426.142812
261.245966
138.336420
98.800659
90.910792
103.957653
124.184489
137.227774
145.880580
138.817430
129.829645
101.615787
79.831481
53.140521
38.218498
21.803975
14.067888
7.723570
7.059574
6.091595
6.347895
6.204844
5.893707
7.151961
6.548762
6.755590
6.601810
6.902814
6.467700
6.560683
6.215572
6.692410
6.720424
7.382631
7.238984
7.318854
8.764863
8.020997
8.681417
9.208918
9.626746
9.950995
10.127425
11.945963
12.218952
13.412833
14.089942
16.764998
17.898679
19.544959
21.094680
22.159815
23.406744
24.209619
24.662614
24.269819
25.423765
24.314523
24.493933
24.871826
25.017858
26.401877
24.843812
24.632812
24.704933
25.124550
24.763942
26.403666
26.318431
26.383996
25.841594
26.011467
27.463436
27.750731
##ZVALUE=260
1.305938
1.247525
1.621842
1.291633
1.641512
1.679659
1.527667
1.448989
1.796484
2.170801
2.110600
2.485514
6.938577
28.764606
66.493750
181.916952
327.259898
601.062775
817.270875
1016.140580
1016.140580
1016.140580
1016.140580
871.598721
569.198728
379.933715
214.032531
130.794644
83.391666
82.663894
100.548863
127.243400
141.854882
153.109431
147.109628
131.313801
111.475587
81.393719
59.393644
36.745667
24.747849
14.015436
8.778572
7.172823
7.058978
6.462932
6.624460
6.488562
6.807446
6.387830
6.545782
6.897449
6.719828
7.217526
6.917715
7.014871
7.509589
7.204413
7.521510
7.665753
8.080602
8.526444
8.827448
9.300709
9.485483
11.047721
10.923743
11.912584
12.604594
14.162660
15.215874
16.729832
18.393993
20.999908
20.433664
21.003485
21.607876
22.365451
22.216439
22.372603
22.737980
23.736954
22.041798
21.753907
22.693872
23.390651
22.702813
23.678541
24.389625
24.400949
25.030971
24.586916
23.979545
26.104450
25.611520
25.881529
##ZVALUE=265
1.275539
1.255870
1.316667
1.256466
1.334548
1.409650
1.413822
1.448989
1.526475
1.491904
1.810789
1.874566
2.141595
2.298951
3.999472
19.977689
48.213601
132.328868
260.988474
542.011857
800.913572
1016.145945
1016.145945
1016.145945
1016.145945
1016.145945
778.682828
530.048609
287.261009
165.745616
98.591447
70.685744
79.744458
111.018419
132.619739
150.703788
154.993534
147.246718
133.645535
106.433630
83.777905
55.227876
39.075613
22.706985
14.544725
9.650588
8.165836
7.251501
7.648468
8.079410
7.804632
7.208586
8.307695
7.980466
7.703900
7.550716
8.173585
8.185506
8.055568
8.961558
8.307695
9.414554
9.611845
9.435415
9.881854
10.406971
10.866523
11.582971
12.856722
14.146566
15.329719
15.614629
17.502904
18.444657
18.984675
20.189881
20.053983
19.796491
20.436645
21.229982
21.116734
21.818876
21.034479
21.740794
22.278428
22.177696
21.994710
22.756457
21.629930
22.914410
22.591949
23.404956
24.566650
22.469759
22.485852
23.487806
##ZVALUE=270
1.332760
1.029968
1.253486
1.114607
1.182556
1.362562
1.212955
1.392961
1.264811
1.599789
1.594424
1.816750
1.926422
1.754761
1.564622
2.085567
2.783537
9.874701
29.146671
94.303489
187.335014
343.796611
649.803877
903.893709
1016.140580
1016.140580
1016.140580
1016.140580
877.117515
647.038817
376.010537
222.707987
105.073452
68.179965
64.845681
82.025528
111.489892
133.823752
153.823495
158.228874
148.345828
135.994554
110.528469
86.896420
59.465766
40.704608
24.405718
16.754866
11.018515
9.843707
9.627938
8.996725
8.495450
9.109974
8.951426
9.185672
9.288788
8.978844
9.537935
9.583831
10.142922
9.634495
10.055900
10.610819
11.291504
11.082888
12.365580
12.675524
13.129711
13.955832
15.295744
16.282797
16.871691
17.116666
18.566847
19.667745
19.059777
18.575788
19.342899
19.289851
20.000935
20.098686
20.711422
20.031929
20.833611
21.432638
21.484494
21.668673
21.356940
21.916628
21.615624
22.039413
21.500587
22.928715
22.711754
22.131801
##ZVALUE=275
1.163483
1.232624
1.082420
1.274943
1.029968
1.150966
1.189709
1.030564
1.290441
1.425743
1.266599
1.343489
1.338720
1.546741
1.350641
1.561642
1.921654
1.721978
2.184510
4.217625
15.170574
60.812831
133.071542
297.356844
481.827855
756.140947
939.061642
1016.140580
1016.140580
1016.140580
994.987488
735.548735
522.394776
279.286504
157.482624
73.081851
50.927997
62.331557
80.880523
109.127760
131.598711
151.748657
156.309605
149.308443
135.720968
109.714866
86.441636
60.302615
42.383671
26.420951
18.708706
12.461543
10.942817
9.851456
9.201765
9.622574
9.649992
10.070801
10.536909
10.561943
10.966659
11.053681
11.607409
11.760592
12.026429
12.361407
12.764931
13.263822
13.651848
14.716983
15.710592
16.786456
17.119646
18.544793
18.550754
18.878579
19.023418
18.842816
20.157695
19.823909
19.725561
20.101666
19.887686
20.082593
20.097494
20.682812
21.002889
20.129681
21.000504
20.898581
21.284819
21.044612
20.776987
20.652413
21.429658
21.913648
##ZVALUE=280
1.027584
0.997782
0.905991
1.010895
0.946522
1.042485
1.198649
1.043677
1.200438
1.265407
1.289845
1.290441
1.317859
1.450777
1.559854
1.355410
1.571774
1.655817
1.513958
1.580715
1.872778
2.288818
10.852814
36.510825
112.579465
211.027861
407.501459
604.109764
880.882740
1016.140580
1016.140580
1016.140580
1016.140580
882.986784
666.491985
380.380750
220.653415
97.673535
53.414702
43.795705
56.644678
82.770586
106.077790
131.331682
144.617558
151.772499
148.105621
129.611492
110.423565
82.205534
61.305761
38.812757
26.942492
17.164946
12.496710
9.344816
8.922815
9.410977
9.316802
9.247661
9.805560
10.205507
10.093451
10.030866
10.729432
10.613799
11.632442
12.196898
12.861490
13.871789
14.334917
15.264750
15.838742
16.524792
16.989708
16.964674
17.604828
18.170476
18.228889
18.470883
18.597841
18.082857
18.387437
19.378662
19.108653
18.419623
19.478798
19.521713
19.267797
19.262433
19.418597
19.854903
19.791722
20.213723
20.136833
19.899607
##ZVALUE=285
0.947714
0.892878
1.011491
1.047850
1.085997
1.102686
0.980496
0.953674
1.017451
0.983477
1.143813
1.204610
1.118779
1.288652
1.158714
1.494884
1.344681
1.349449
1.299977
1.465678
1.612902
1.550913
2.160668
2.079606
5.716681
17.107725
62.350631
135.754943
303.134918
489.130616
700.902939
978.111625
1016.140580
1016.140580
1016.140580
996.618867
815.144777
536.949635
339.861512
167.058706
86.316466
38.013458
35.460591
53.779483
73.109865
103.098750
120.756626
140.219927
145.029426
142.594576
129.476786
107.645988
86.405873
58.668852
41.563511
24.665594
17.303824
11.477470
9.287000
8.497834
8.520484
8.616447
9.333491
9.705424
9.845495
10.249615
10.710955
11.170506
12.135506
12.545586
13.673902
14.776587
14.746785
16.233921
16.581416
16.201735
17.443895
16.858578
17.975569
17.705560
17.862916
18.420815
18.142462
19.506812
17.865896
19.249916
19.118786
18.842816
18.998981
19.200444
19.110441
18.888712
18.743873
19.179583
19.269586
19.662976
##ZVALUE=290
0.948906
1.073480
0.935793
1.016855
0.914931
1.095533
1.131892
1.073480
1.152754
1.050830
1.003742
1.076460
0.995994
1.006722
1.076460
1.159906
1.167655
1.211762
1.278520
1.377463
1.367927
1.471639
1.503825
1.698732
1.793504
2.090931
2.656579
9.209514
27.531981
88.480711
175.393820
377.391577
578.141809
873.810649
1016.140580
1016.140580
1016.140580
1016.140580
895.366669
620.196462
420.655012
219.497681
122.318864
49.016476
28.851628
34.877658
47.540665
71.522593
90.309978
117.453933
131.335855
141.839981
139.700770
124.789476
107.311606
79.251528
58.643818
38.777590
27.212501
17.021894
12.123585
10.056496
8.992553
9.782910
9.708405
9.885430
11.172891
11.420846
12.264848
12.778640
13.724566
14.405847
14.932752
16.306639
16.294718
17.060637
17.175674
17.473698
17.083883
17.544627
18.303990
18.082857
18.612742
18.303990
18.749833
19.015670
19.029975
19.098520
19.075871
18.756986
18.541813
18.247962
18.450618
19.279718
18.644929
19.548535
##ZVALUE=295
0.964999
0.949502
1.005530
0.836849
0.940561
0.906587
0.944734
0.935793
1.116991
1.116991
0.982881
0.915527
0.946522
1.035929
1.162887
1.230836
1.048446
1.102686
1.191497
1.276731
1.196861
1.300573
1.351833
1.353621
1.406670
1.481771
1.728535
1.860857
1.982450
3.571510
12.044907
53.199530
117.327571
281.097889
468.596816
777.813792
1001.345515
1016.140580
1016.140580
1016.140580
1016.140580
782.241821
542.667508
286.814570
156.810880
59.753656
30.034781
22.137761
29.432774
46.852827
63.835979
91.031790
109.261870
128.486753
135.083795
132.246614
121.990442
102.234483
81.400871
57.916641
42.139888
26.094913
18.758774
13.459921
11.663437
10.984540
11.689663
11.737943
12.879968
13.112426
13.772845
14.705658
16.116500
15.852451
16.749501
16.837716
17.974973
17.556548
18.185973
17.806888
18.656850
19.329786
18.460751
18.891692
18.521547
18.602610
19.420981
19.218922
19.637942
18.692613
19.027591
18.948913
18.444657
18.897653
19.208789
19.182563
##ZVALUE=300
0.808835
0.912547
0.755787
0.938773
0.895858
0.947714
0.891685
1.029968
0.850558
0.864863
0.957847
1.044869
1.010895
0.993609
0.979900
0.945926
1.130700
1.060963
1.314878
1.116991
1.210570
1.312494
1.356602
1.368523
1.214743
1.388788
1.680851
1.428723
1.730919
1.832843
2.213717
2.586842
7.872581
27.907491
94.527602
187.821984
405.731797
635.100007
972.660780
1016.140580
1016.140580
1016.140580
1016.140580
989.391804
649.820566
413.828492
197.709799
102.322698
37.437677
19.317865
18.501878
26.232600
42.665601
58.413744
82.650781
101.635456
121.282935
128.450990
127.342939
118.689537
99.344850
82.547665
59.453845
44.322610
28.651953
21.498799
15.372634
13.967752
12.895465
12.966990
14.280677
15.091896
15.659928
16.335845
17.232895
17.718673
17.836690
17.636418
18.235445
18.908978
18.648505
19.370914
18.904805
19.216537
19.425750
19.533634
19.241571
19.712448
19.483566
20.108819
18.937588
19.126534
18.950701
19.184947
18.265843
18.688440
##ZVALUE=305
0.778437
0.698566
0.847578
0.821948
0.675917
0.994802
0.865459
0.957847
1.047850
0.887513
0.888705
0.887513
1.102686
0.971556
1.064539
0.952482
0.967979
1.166463
1.080632
1.049638
1.177788
1.109838
1.088977
1.224875
1.186728
1.214743
1.547933
1.602769
1.530647
1.659989
1.622438
1.770854
1.854897
2.114773
3.811717
24.497509
64.766407
173.162818
310.676694
569.791794
804.839730
1016.131639
1016.131639
1016.131639
1016.131639
1016.131639
842.672586
520.405769
315.148830
137.515664
63.227415
21.745563
14.044642
17.948747
24.617910
41.140914
58.546662
80.665946
98.100901
114.816427
123.507977
122.266412
113.724470
95.488429
79.062581
56.883693
43.034554
29.955506
22.492409
17.470717
15.934706
15.414953
15.880466
16.418695
17.268658
17.659664
17.825961
18.340945
18.481612
18.892884
19.065738
19.836426
19.535422
19.643903
19.811988
19.939542
19.710660
19.547939
19.602776
19.871593
19.438863
19.513965
19.764900
18.766522
19.265413
19.139647
##ZVALUE=310
0.865459
0.880957
0.853539
0.826716
0.580549
0.914931
0.858903
0.841618
0.718832
0.691414
0.880957
0.933409
0.953674
0.948906
0.717640
0.959635
1.038909
1.081824
1.139641
0.900626
1.080632
1.135468
1.165867
0.888705
1.169443
1.165867
1.040697
1.293421
1.224875
1.354814
1.428723
1.553893
1.691580
1.872778
2.041459
2.027750
2.462864
10.072589
36.810637
121.802688
236.305594
474.928617
708.657503
1011.365652
1016.138792
1016.138792
1016.138792
1016.138792
1016.138792
695.769787
450.559855
215.616822
110.003948
38.077831
17.021894
12.804866
15.961528
24.723411
34.941435
53.629875
70.747733
92.830658
106.008649
116.180778
117.339492
109.265447
97.858906
78.246593
61.977506
43.723583
33.711791
25.081635
21.361709
18.682480
18.157959
18.167496
18.426776
18.705726
18.797517
19.235611
19.593835
20.433664
19.669533
20.015836
20.507574
20.596981
20.501614
21.108985
20.508766
20.389557
20.314455
19.619465
19.862652
19.402504
19.267797
19.023418
##ZVALUE=315
0.829697
0.826716
1.014471
0.807643
0.949502
1.032948
0.989437
1.001954
1.026988
1.004934
0.959635
0.914931
1.027584
0.928640
0.999570
0.974536
0.890493
1.030564
0.996590
1.188517
0.992417
1.109838
1.182556
1.216531
1.153946
1.149774
1.393557
1.251698
1.452565
1.451969
1.411438
1.577735
1.526475
1.551509
1.815557
1.760721
2.267957
2.361536
2.478957
5.494952
20.655990
101.810694
249.505639
596.475005
956.799984
1016.140580
1016.140580
1016.140580
1016.140580
1016.140580
1016.140580
975.861549
687.988997
355.283618
187.547803
61.718822
25.128722
12.476444
12.483001
16.453862
22.155643
35.474896
48.304796
68.831444
84.563494
103.525519
112.207532
113.127828
108.570457
93.387961
78.473687
60.024858
47.130585
33.392906
27.263761
21.872520
20.452738
19.938946
19.153953
19.792914
20.231605
19.778609
20.290613
20.585656
20.575523
21.129847
20.642877
21.124482
20.694733
21.565557
20.705462
20.205975
20.257831
20.164847
20.397902
19.880533
##ZVALUE=320
0.898838
0.883937
0.740886
0.998974
0.808835
0.927448
0.817776
0.858903
0.899434
0.851750
0.875592
1.063943
1.029968
1.026988
1.033545
1.082420
1.085997
1.105666
1.000762
0.998974
1.121759
1.026988
0.879765
0.941753
1.159906
1.023412
1.195669
1.249909
1.170635
1.367927
1.274943
1.487732
1.473427
1.674891
1.613498
1.739860
1.857877
1.889467
2.168417
2.351999
2.699494
3.480911
8.443594
44.612885
125.315785
392.009616
707.727671
1016.140580
1016.140580
1016.140580
1016.140580
1016.140580
1016.140580
1016.140580
929.261446
517.623425
296.741724
125.022531
53.002834
16.533732
11.869669
12.499690
15.343428
22.078753
32.080412
48.222542
62.637925
82.123876
95.275640
107.551813
109.213591
105.569959
94.646811
75.434446
61.366558
45.238733
35.020709
26.825666
23.186803
20.932555
20.426512
20.347834
20.221472
20.481944
20.507574
20.728707
20.870566
20.678639
21.113753
20.853877
21.462440
20.960569
20.293593
20.474792
20.139813
20.424724
##ZVALUE=325
0.814795
0.710487
0.829697
0.990629
0.870824
0.708699
0.872612
0.991821
0.819564
0.868440
0.881553
0.809431
0.777841
0.841618
0.840425
0.747442
0.828505
0.809431
0.989437
0.990629
0.961423
0.948906
1.026988
1.073480
1.128912
1.068711
1.170635
1.282692
1.059771
1.246929
1.235604
1.226664
1.223683
1.390576
1.421571
1.459718
1.688600
1.708865
1.611710
1.895428
2.035499
2.128482
2.310872
2.675653
4.554987
26.091933
72.194934
205.360651
399.089456
826.478004
1016.144753
1016.144753
1016.144753
1016.144753
1016.144753
1016.144753
1013.396978
630.093813
373.880863
157.689452
71.380734
21.254420
12.610555
11.526942
12.524724
15.838742
21.234751
33.435822
45.186877
63.967705
78.892708
94.900727
102.527738
103.728771
98.957419
84.645748
73.365569
56.326985
44.822693
33.399463
27.523637
23.346543
21.120906
20.567775
20.890832
20.792484
20.624995
20.775795
20.269752
20.786524
20.217896
20.463467
20.210743
20.009875
20.208955
19.434690
##ZVALUE=330
0.717640
0.817776
0.638962
0.737906
0.850558
0.869632
0.904799
0.941753
0.613928
0.715852
0.723600
0.900626
0.897646
0.900626
0.738502
0.904799
0.717640
0.641942
0.699759
0.883937
0.800490
1.029968
0.696778
1.024604
0.894666
0.902414
0.921488
1.017451
1.044869
1.003742
1.008511
1.225471
1.016855
1.232624
1.203418
1.091957
1.204610
1.342893
1.430511
1.440644
1.587868
1.708865
1.839995
1.993775
1.953840
2.270937
2.910495
11.431575
36.573410
131.387711
273.285508
583.356619
891.265869
1016.140580
1016.140580
1016.140580
1016.140580
1016.140580
1016.140580
725.765824
456.620455
205.060840
97.955465
33.301711
15.564561
10.985732
10.933876
12.873411
15.400648
22.972822
30.469894
45.051575
58.820844
77.689886
88.940859
98.490715
98.618865
92.784762
82.553625
68.007708
55.067539
41.479468
34.078956
27.742982
24.333596
21.831989
20.814538
20.376444
20.286441
20.349622
20.023584
19.908547
19.725561
20.206571
19.713640
19.251704
##ZVALUE=335
0.635982
0.711679
0.692606
0.727773
0.602603
0.749826
0.623465
0.932813
0.678897
0.862479
0.789762
0.798702
0.707507
0.745654
0.764728
0.931621
0.884533
0.816584
0.662804
0.814795
0.728965
0.877976
1.028776
0.891685
1.043677
0.821948
0.740886
0.939965
0.914931
0.900626
1.064539
0.917912
1.046658
1.034737
1.011491
1.095533
1.189709
1.364946
1.283884
1.297593
1.395941
1.301765
1.482964
1.434684
1.597404
1.841784
2.100468
2.008677
2.311468
5.447865
19.864440
82.492828
182.162523
432.227850
719.741583
1016.134024
1016.134024
1016.134024
1016.134024
1016.134024
1016.133428
798.152685
546.290874
289.942622
154.223442
52.255988
21.609664
12.070537
11.412501
12.000799
13.840795
16.877651
21.745563
32.200813
42.822957
59.226751
71.025491
84.989667
91.966987
93.572736
90.304613
76.484680
66.920519
54.718852
44.616461
34.032464
28.395653
23.433566
21.591783
19.933581
19.552708
19.564629
19.134879
19.106865
18.851757
18.970966
##ZVALUE=340
0.940561
0.691414
0.696778
0.534654
0.626445
0.773668
0.769496
0.759959
0.843406
0.831485
0.822544
0.760555
0.897646
0.903606
0.800490
0.821948
0.858903
0.703931
0.787973
0.813603
0.745654
0.858903
0.873804
0.915527
0.779629
0.842810
1.055598
0.943542
0.899434
0.986457
0.938773
1.052618
1.054406
0.984669
1.064539
1.042485
1.166463
0.982881
1.042485
1.132488
1.214743
1.251698
1.190901
1.279712
1.378655
1.588464
1.514554
1.700521
1.712441
1.775622
2.107620
3.196001
10.790825
53.389668
131.899714
326.302648
551.849604
908.105969
1016.140580
1016.140580
1016.140580
1016.140580
1016.140580
958.513618
676.446557
359.412432
195.709467
70.984960
29.081702
13.217926
11.361837
11.772513
12.680888
14.027953
16.554594
22.660494
29.964447
42.605996
54.108500
68.849921
80.767870
88.401437
88.982582
83.634853
76.878667
64.136982
54.704547
42.416453
34.897923
26.560426
22.881627
20.252466
19.165874
18.813610
18.676519
18.204451
##ZVALUE=345
0.534654
0.612736
0.559688
0.549555
0.603795
0.637770
0.474453
0.575781
0.622869
0.487566
0.572801
0.524521
0.589490
0.598431
0.425577
0.691414
0.649691
0.610948
0.690818
0.723600
0.725985
0.666976
0.674725
0.750422
0.724792
0.794530
0.623465
0.579953
0.560880
0.741482
0.735521
0.808835
0.712872
0.894666
0.790954
0.737906
0.819564
0.694990
0.850558
0.885725
0.943542
0.938773
1.112819
1.078844
1.139641
0.996590
1.004934
1.263618
1.266599
1.356602
1.495481
1.626611
1.754761
2.066493
5.329847
43.050647
115.914941
286.106467
482.268929
818.525553
1015.956998
1015.956998
1015.956998
1015.956998
1015.956998
1015.956998
807.719827
475.023985
266.519785
100.726485
45.037866
16.737580
11.887550
11.791587
11.774898
12.341738
13.566613
16.130805
20.226836
29.168725
38.025975
52.659512
62.573552
73.716640
79.590678
81.500411
79.427958
72.328448
62.854886
51.646829
42.805672
31.461716
26.578903
21.813512
19.214749
18.499494
##ZVALUE=350
0.434518
0.544786
0.464916
0.453591
0.529885
0.471473
0.411868
0.490546
0.526905
0.554919
0.716448
0.316501
0.575781
0.542998
0.476837
0.472665
0.603795
0.570416
0.579953
0.574589
0.570416
0.580549
0.689626
0.768900
0.692606
0.590682
0.452995
0.664592
0.739694
0.617504
0.698566
0.731945
0.776649
0.751615
0.745654
0.825524
0.747442
0.845790
0.766516
0.905991
1.093745
0.865459
0.853539
1.026988
0.943542
0.948906
0.949502
1.093745
1.317859
1.134872
1.346469
1.235604
1.501441
1.726747
2.053976
2.360940
3.574491
14.270544
80.058575
192.188621
470.883846
770.787597
1015.912890
1015.912890
1015.912890
1015.912890
1015.912890
1015.912890
974.118710
658.571720
324.825644
173.158646
63.350797
26.009679
12.603998
11.578798
11.234879
11.647940
11.924505
13.364553
15.935898
19.607544
26.737452
34.444928
46.013594
55.474639
66.762567
72.083473
75.123906
73.241591
67.335963
59.283972
47.540665
39.529800
30.425787
25.102496
##ZVALUE=355
0.653863
0.689626
0.813603
0.759959
0.910759
0.820756
0.705719
0.747442
0.723600
0.659823
0.689626
0.806451
0.748634
0.619888
0.648499
0.636578
0.678897
0.829697
0.755787
0.801682
0.768900
0.837445
0.767708
0.849962
0.691414
0.872612
0.864863
0.806451
0.817776
0.895858
0.803471
0.880957
0.957847
0.935793
0.966787
0.946522
0.983477
0.977516
1.140833
0.941753
0.878572
0.913739
1.034737
0.927448
1.234412
1.138449
1.160502
1.083612
1.236796
1.347661
1.286864
1.539588
1.636744
1.602769
1.763701
1.977682
1.810789
2.178550
2.512932
8.802414
32.459497
127.162933
256.194472
512.277484
765.495896
1016.140580
1016.140580
1016.140580
1016.140580
1016.140580
979.772806
653.571486
420.554876
194.438696
94.480515
31.374693
13.887882
10.868907
10.784864
10.569692
10.906458
11.588931
12.413859
14.538765
17.672777
24.131536
30.581951
40.838718
49.152970
59.242845
64.711571
68.750978
67.565441
61.242580
54.743886
45.955777
##ZVALUE=360
0.734925
0.716448
0.573993
0.741482
0.827909
0.697970
0.710487
0.799894
0.929832
0.878572
0.932813
0.808835
0.787973
0.698566
0.873804
0.744462
0.700951
0.900626
0.758767
0.681877
0.782609
0.911951
0.870824
0.834465
0.825524
0.856519
0.834465
0.815988
0.852942
0.887513
0.865459
0.917912
1.053810
0.930429
1.083612
1.090765
1.031756
1.003742
0.876784
1.082420
0.966787
0.997782
1.265407
1.265407
1.119971
1.100898
1.115799
1.200438
1.195669
1.186728
1.197457
1.333952
1.404881
1.327991
1.621842
1.635551
1.861453
1.850724
1.891851
2.324581
2.624989
4.142523
15.418530
73.710680
176.498890
411.491990
638.461709
950.182676
1016.167998
1016.167998
1016.167998
1016.167998
1004.316807
703.287721
468.563437
227.851868
118.113756
42.381883
18.129945
10.402799
10.049939
9.975433
10.255575
10.262728
10.581613
11.655688
12.622476
15.885830
19.336939
25.743842
33.353567
43.436885
50.399899
58.651567
61.932802
62.341690
##ZVALUE=365
0.738502
0.589490
0.736713
0.715852
0.764728
0.760555
0.719428
0.651479
0.692606
0.888705
0.623465
0.812411
0.778437
0.718832
0.751615
0.779629
0.737906
0.824928
0.854731
0.802875
0.738502
0.950694
0.855923
0.738502
0.731945
0.729561
0.872612
0.856519
0.814795
0.906587
0.727773
0.914931
0.861883
0.886917
0.742674
0.920892
0.882745
0.767708
0.879765
0.940561
0.942945
1.020432
1.038909
0.925660
1.132488
0.866652
1.118779
1.081824
1.125932
1.222491
1.209974
1.232624
1.280904
1.200438
1.182556
1.433492
1.479983
1.598597
1.447797
1.798868
1.826882
2.126694
2.283454
2.619624
5.556941
32.305717
92.184544
247.340798
438.120961
767.260790
1009.611487
1016.140580
1016.140580
1016.140580
1016.140580
837.121606
571.692586
307.253003
167.765617
63.062906
26.073456
10.464787
9.483695
9.002686
9.455681
9.399652
9.270906
9.909868
10.001659
11.153817
13.386607
17.223954
22.022724
28.927922
36.001801
45.035481
##ZVALUE=370
0.608563
0.704527
0.722408
0.786781
0.719428
0.718832
0.755787
0.788569
0.735521
0.856519
0.738502
0.712872
0.805855
0.884533
0.849962
0.809431
0.891685
0.872612
0.821948
0.854731
0.898838
0.922680
0.836849
0.828505
0.844598
0.809431
1.031756
0.832677
0.806451
0.803471
0.908971
1.092553
0.883937
0.951886
0.860691
0.950694
0.824928
0.961423
0.992417
0.932813
0.881553
0.866652
0.944734
0.898838
1.097918
0.935793
0.989437
0.947714
0.972748
1.029968
1.138449
1.066923
1.283884
1.281500
1.072884
1.292825
1.179576
1.261830
1.374483
1.457930
1.585484
1.650453
1.701713
2.002716
2.132654
2.452731
3.106594
14.456511
50.362945
166.381001
308.691859
574.096441
845.178962
1016.187668
1016.187668
1016.187668
1016.187668
1016.187668
858.376622
469.794869
256.811976
90.964437
39.232969
14.327765
9.292960
8.373857
8.252859
8.587837
8.788705
8.805990
8.782744
9.172559
10.202527
11.889935
14.469624
19.697547
##ZVALUE=375
0.670552
0.629425
0.751615
0.787973
0.710487
0.576973
0.605583
0.700951
0.729561
0.602603
0.613928
0.656843
0.672936
0.816584
0.720620
0.650883
0.793934
0.828505
0.656843
0.538826
0.654459
0.707507
0.866652
0.659823
0.798702
0.589490
0.648499
0.774860
0.910759
0.679493
0.878572
0.770688
0.706911
0.750422
0.727773
0.655651
0.873804
1.008511
0.836849
1.059771
1.052618
0.920892
0.916719
0.851750
0.981688
0.999570
0.759959
0.829697
0.997782
0.954866
1.074672
1.069903
0.983477
1.013875
1.008511
1.215935
0.939965
1.147985
1.092553
1.336932
1.275539
1.445413
1.451969
1.467466
1.487732
1.644492
1.799464
2.286434
2.434850
7.616878
28.074980
108.006001
225.592852
487.688780
739.572644
1016.140580
1016.140580
1016.140580
1016.140580
1016.140580
829.689503
492.315888
296.762586
131.033659
63.953996
20.936728
10.633469
7.925630
7.655621
7.880926
7.930994
7.510781
8.066893
8.279681
8.594990
9.114742
##ZVALUE=380
0.681877
0.567436
0.663996
0.513792
0.703931
0.609756
0.769496
0.656843
0.531673
0.639558
0.654459
0.641942
0.687838
0.660419
0.770688
0.680685
0.841618
0.697970
0.713468
0.675917
0.845790
0.833869
0.778437
0.682473
0.744462
0.687838
0.785589
0.696778
0.766516
0.794530
0.731945
0.789762
0.717640
0.863671
0.757575
0.770688
0.913739
0.798702
0.801682
0.880957
0.838637
0.892878
0.974536
0.850558
0.859499
0.851750
0.819564
0.930429
1.002550
0.958443
0.999570
0.885725
1.001954
1.106858
1.116991
1.203418
1.093745
1.105666
1.174808
1.159906
1.337528
1.322627
1.465678
1.497865
1.705885
1.788735
1.839995
2.027750
2.415776
2.610683
3.031492
4.535913
21.555424
66.952705
219.987631
423.845649
826.004744
1016.140580
1016.140580
1016.140580
1016.140580
1016.140580
1016.140580
848.390460
465.567708
255.458951
96.774697
41.636825
13.458729
8.568764
7.685423
7.599592
7.459521
7.701516
7.769465
7.690787
##ZVALUE=385
0.613928
0.614524
0.771880
0.515580
0.564456
0.569820
0.724792
0.713468
0.714660
0.657439
0.671744
0.700951
0.598431
0.667572
0.739694
0.634789
0.752807
0.393987
0.658631
0.495911
0.537634
0.555515
0.616908
0.710487
0.643730
0.768900
0.781417
0.805855
0.708699
0.785589
0.880957
0.759959
0.699759
0.748634
0.740886
0.727773
0.784993
0.702739
0.824928
0.605583
0.731945
0.866652
0.807643
0.841618
0.648499
0.860691
0.888705
0.837445
0.910759
0.949502
0.992417
0.907779
0.867844
1.030564
0.828505
1.054406
1.033545
1.052618
1.153946
1.157522
1.178980
1.136661
1.352429
1.272559
1.247525
1.390576
1.290441
1.537800
1.809597
2.003908
2.148747
2.499819
2.638698
3.025532
9.040833
53.692460
136.398673
338.377953
576.369762
976.789594
1016.140580
1016.140580
1016.140580
1016.140580
1016.140580
947.616696
642.908812
329.542756
180.164576
68.833828
26.878715
8.846521
7.110834
6.857514
6.826520
6.458759
##ZVALUE=390
0.714660
0.618696
0.547767
0.528693
0.632405
0.751615
0.684857
0.585914
0.742674
0.770688
0.767708
0.671744
0.726581
0.743866
0.655651
0.754595
0.673532
0.737906
0.717640
0.723600
0.646710
0.806451
0.652671
0.722408
0.683665
0.764728
0.753999
0.672936
0.675917
0.703931
0.741482
0.591874
0.714660
0.830889
0.728965
0.911951
0.639558
0.748634
0.714660
0.660419
0.814795
0.832677
0.754595
0.753999
0.634789
0.787973
0.801682
0.719428
0.883937
0.988841
0.808835
0.793934
0.899434
1.035929
0.966787
0.996590
1.038909
0.939965
0.963807
0.924468
1.183748
1.160502
1.102686
1.232624
1.245737
1.148582
1.440644
1.676679
1.700521
1.841784
2.066493
1.948476
2.110600
2.176762
2.507567
2.719760
3.921986
22.837520
82.179904
278.591514
550.234914
998.666883
1016.140580
1016.140580
1016.140580
1016.140580
1016.140580
1016.140580
862.222910
484.269857
270.156860
107.491612
48.665404
14.285445
7.774830
6.771684
##ZVALUE=395
0.501871
0.429749
0.600815
0.512600
0.717640
0.587702
0.574589
0.672936
0.482798
0.679493
0.760555
0.793934
0.670552
0.689626
0.564456
0.659823
0.635982
0.578761
0.613928
0.594854
0.641942
0.516772
0.742674
0.684857
0.596642
0.574589
0.570416
0.706911
0.582933
0.548959
0.610948
0.728965
0.731945
0.769496
0.695586
0.766516
0.793934
0.808835
0.735521
0.723600
0.763535
0.791550
0.796914
0.654459
0.695586
0.776649
0.773668
0.886917
0.904799
0.917912
0.919700
0.887513
0.734925
0.845790
0.902414
0.943542
0.847578
0.822544
0.968575
0.869632
0.942945
0.948906
1.070499
1.009703
1.090765
1.212955
1.227856
1.299977
1.554489
1.709461
1.803637
1.850724
1.769662
1.892447
1.768470
1.938939
2.050996
2.101660
2.855659
9.178519
56.340694
141.629577
341.749787
577.123761
969.866514
1016.140580
1016.140580
1016.140580
1016.140580
1016.140580
977.402925
678.147674
343.558788
177.708864
61.162710
25.731921
##ZVALUE=400
0.620484
0.502467
0.610948
0.565648
0.548959
0.608563
0.598431
0.600815
0.731945
0.700951
0.759959
0.576973
0.599623
0.684857
0.559688
0.510812
0.560880
0.771880
0.631809
0.545979
0.761747
0.593662
0.666976
0.753999
0.704527
0.691414
0.891685
0.649691
0.730753
0.697970
0.764728
0.781417
0.661612
0.789762
0.632405
0.676513
0.650883
0.761747
0.654459
0.808835
0.622869
0.707507
0.716448
0.779629
0.857711
0.736713
0.737906
0.794530
0.892878
0.775456
0.926852
0.823736
1.002550
0.799894
0.719428
0.859499
0.844598
0.935793
0.928640
0.984669
1.043677
0.965595
0.985861
1.010895
1.139641
1.323819
1.189709
1.361966
1.466870
1.716614
1.666546
1.681447
1.750588
1.664758
1.752973
1.621842
1.675487
1.966953
1.913905
2.221465
2.634525
6.105900
23.662448
96.604824
210.715532
473.304987
743.246675
1016.139984
1016.139984
1016.139984
1016.139984
1016.139984
1016.139984
773.127675
501.886606
123.142004
##END
