##TITLE=QP00601
##FORMAT=SPECTACLE-ASCII V-1.2
##DATA TYPE=ULTRAVIOLET SPECTRUM
##SECOND TYPE=ULTRAVIOLET SPECTRUM
##DATE=03/05/18
##TIME=12:51:43
##SPECTROMETER/DATA SYSTEM=SPECTACLE
##XUNITS=NM EM
##YUNITS=ENERGY
##YFACTOR=1
##FIRSTX=220
##LASTX=410
##NPOINTS=96
##3DDATA=Equidistant
##ZUNITS=NM EX
##FIRSTZ=210
##LASTZ=400
##ZPOINTS=39
##XYDATA=(Y..Y)
##ZVALUE=210
2.357960
2.232790
2.059937
2.387762
2.700686
2.184510
2.225637
2.894998
2.870560
3.013611
2.565980
2.934933
2.380610
2.469420
2.519488
2.940893
2.817512
2.866983
3.506541
3.364682
3.499985
3.820658
3.602505
3.655553
4.369617
3.737807
4.056692
3.561974
4.428625
4.154444
4.595518
5.276799
5.996823
5.369782
4.912615
6.041527
4.616976
5.735755
6.253719
5.366802
5.946755
5.571842
5.610585
5.697608
5.697608
5.890727
7.129908
6.349683
6.628633
6.888509
6.044507
6.404519
6.384850
6.267428
7.084608
6.175637
6.396770
6.269813
6.685853
6.086826
7.533431
6.207824
7.156730
7.185936
6.302595
6.685853
6.953478
8.650422
10.151863
11.350513
14.430881
15.420914
17.861724
18.486977
22.099614
22.161603
23.396611
21.042824
22.091866
21.919608
18.157959
17.345548
13.734698
12.944937
11.078715
9.435415
8.254647
7.795691
7.856488
7.913709
6.093979
6.751418
6.886721
7.885695
6.600618
7.270575
##ZVALUE=215
7.003546
6.818771
5.565882
5.305409
4.161596
4.574656
4.648566
5.494952
5.241632
4.952550
5.756617
4.400611
4.110932
3.483891
3.504753
3.155470
3.358722
3.451705
3.299713
3.456473
3.193617
3.136992
3.445745
3.802776
3.902912
4.031658
4.158616
4.135966
4.683733
4.671812
4.900694
4.524589
4.478693
4.824996
4.741549
4.634857
5.261898
5.476475
4.807711
5.579591
5.133748
5.334616
6.011724
5.649924
6.172657
5.303621
6.310940
5.330443
5.830526
5.628467
6.005764
6.582737
5.790591
6.440878
6.121993
5.679727
6.398559
6.083846
6.467700
6.579757
6.902814
6.855726
6.494522
6.266832
7.810593
7.097721
8.511543
7.868409
8.845925
10.065436
11.564493
14.664531
16.143918
17.859936
16.833544
20.173788
21.853447
22.083521
19.921660
19.195676
18.917918
14.956594
12.848973
12.980700
9.928942
10.261536
8.459687
7.609725
6.746650
7.875562
7.410645
6.365776
5.874634
6.881952
6.539822
6.721616
##ZVALUE=220
18.814802
21.529794
20.758510
21.710992
22.296906
18.806458
16.082525
12.307763
12.457967
11.205673
11.545420
12.684464
12.084842
11.862516
8.778572
7.409453
4.529953
4.738569
3.593564
3.448725
3.690720
4.152656
4.013777
4.411936
4.298687
4.173517
4.001856
4.255772
4.581809
4.685521
3.878474
4.685521
5.066991
4.554987
4.804730
5.021691
5.099773
4.682541
4.989505
4.854798
5.980730
5.216599
5.826950
5.224943
6.558895
6.022453
5.908608
6.625652
5.522966
5.823970
5.577803
6.031990
5.913973
6.188750
7.274747
6.410480
6.398559
6.504655
6.943941
6.369948
6.475449
6.930828
6.119609
7.997751
7.432699
7.797480
7.787943
8.535981
9.116530
10.356903
11.116862
13.068914
15.918612
17.065406
19.517541
20.652413
22.343993
20.189881
20.519495
18.571615
20.003915
16.527772
16.150475
13.542771
12.844801
10.038614
9.060502
8.630753
8.915663
8.052588
7.678866
8.027554
7.054806
8.062720
7.983446
7.689595
##ZVALUE=225
32.745600
35.927892
46.856999
57.982802
68.357587
74.515939
68.121552
58.249831
47.716498
32.963753
25.690794
24.887919
23.636818
26.209950
26.313663
23.277998
20.651817
16.394854
12.707710
8.374453
6.669760
4.495978
4.876852
4.685521
4.550815
5.431771
4.051924
5.100965
4.509687
4.664660
4.794598
5.486608
5.128980
5.454421
5.397797
5.529523
5.832911
5.496740
5.318522
5.930662
6.018877
7.078648
5.957484
6.836653
5.839467
6.290674
6.097555
6.643534
6.491542
6.818771
6.965995
6.964803
7.082820
6.343722
6.799698
7.589459
7.898808
7.666945
7.407665
8.568764
7.631779
8.567572
8.818507
8.516908
8.355975
10.061860
9.458661
10.094643
10.940433
12.135506
15.529990
16.333461
17.843843
17.998815
19.233823
20.748973
21.402836
20.551682
20.104647
18.966794
18.567443
16.023517
15.597939
14.683604
13.275743
13.137460
12.133718
11.562705
10.844469
11.573434
11.222959
11.386871
10.404587
11.178851
12.988448
10.643601
##ZVALUE=230
27.865767
33.053756
55.099726
94.872713
127.578974
165.759921
183.587670
188.405514
176.191926
146.179795
101.577640
72.161555
52.805543
43.611526
48.852563
50.743818
51.072836
46.671629
46.450496
34.370422
28.074980
18.054843
12.181997
8.016825
5.599856
5.510449
4.828572
5.483627
6.172657
6.044507
5.032420
6.011724
5.423427
6.187558
6.375909
5.877614
5.808473
6.737709
6.902814
6.528497
5.765557
6.200671
6.769896
7.127523
6.784797
6.837845
6.753802
6.363988
7.070899
7.169843
7.675886
7.462502
7.258654
7.185936
7.855892
7.498860
7.036924
8.658767
9.180903
9.314418
8.652806
10.333657
10.506511
11.418462
10.734797
11.613965
11.968613
11.667609
14.576912
15.622973
17.728806
18.458962
20.440817
22.435784
23.563504
23.695827
23.417473
21.184683
22.258759
22.779703
21.171570
20.402670
20.201802
20.056963
19.240975
17.547607
17.910600
16.392469
16.787648
17.629862
16.772747
16.573668
16.243458
15.287995
16.812682
15.432835
##ZVALUE=235
9.711981
12.178421
24.201870
63.485503
109.036565
180.962682
245.260596
321.443677
362.108946
366.490483
322.382450
253.947973
176.717639
127.014518
88.839531
78.736544
75.172782
76.038837
83.960891
84.282756
80.634952
65.949559
54.162741
37.485957
24.446845
14.569759
10.569692
6.487966
7.227659
5.635619
6.500483
6.140471
6.897449
6.445646
6.503463
7.781982
6.680489
6.264448
7.445812
7.495880
6.105900
7.517934
7.795691
7.430911
7.029772
7.366538
7.855892
7.446408
7.072687
7.143617
7.939935
8.711815
8.803606
8.407831
8.537769
9.518862
9.427667
11.197925
10.881424
11.155605
10.627508
11.245608
12.228489
12.963414
12.587905
13.474822
14.775991
15.961528
15.212893
19.157529
18.164515
22.071600
24.985671
25.656819
29.998422
28.869510
28.583407
29.446483
27.439594
30.073524
27.483702
28.152466
26.948452
24.311543
24.063587
24.759769
23.523569
23.186803
23.353696
24.298429
23.336411
22.745728
22.837520
21.638870
23.338795
22.565722
##ZVALUE=240
1.929998
1.983643
5.735755
14.372468
31.790733
78.443885
139.606595
249.053836
359.892845
461.753011
528.784990
558.754802
493.922830
417.364836
324.503779
216.615796
152.223706
109.158754
97.476840
100.314617
109.876990
118.463635
116.264820
101.685524
78.305602
66.492558
44.457912
30.265450
17.495751
11.599660
7.503629
6.641746
6.374717
7.020831
6.043911
6.442666
7.449985
7.164478
6.756783
6.785989
6.592870
6.794930
6.715655
7.138848
6.924868
6.525517
7.866621
6.288886
7.222891
7.304549
8.254647
8.495450
8.660555
8.187890
7.848740
9.016991
9.106994
10.147691
10.821819
9.689927
11.244416
11.245608
12.898445
11.599660
13.162494
16.247630
15.525818
16.553998
19.424558
20.934939
22.643805
25.264621
22.812486
30.652881
30.734539
32.352805
29.946566
32.661557
31.659603
31.697750
30.288696
30.590892
30.607581
29.817820
33.718944
26.265979
27.732849
29.776692
29.360652
29.925704
30.321479
28.825998
29.412508
27.936697
27.146935
26.932955
##ZVALUE=245
1.411438
1.998544
1.523495
1.882911
4.161000
10.723472
32.650828
70.170760
161.233544
263.889432
431.520939
557.238460
662.168860
739.997029
711.959600
625.438690
509.158969
340.745449
234.148502
144.727826
106.119514
103.342533
114.800930
126.586556
130.783916
125.125647
110.484958
94.730854
70.957541
54.423809
35.897493
20.309687
13.280511
8.828640
6.504655
6.734729
6.862879
6.753802
5.308986
6.589890
6.451607
6.063581
6.613731
6.582737
6.455779
6.605983
6.395578
7.629991
6.155968
7.702708
6.647706
7.324815
7.429719
7.183552
8.488894
7.471442
8.407831
8.470416
9.130836
9.579659
10.203719
10.801554
11.394620
10.839701
13.017654
14.327765
13.959408
15.774965
16.916990
18.202662
21.813512
24.003983
23.701787
25.191903
25.358796
29.204488
28.470755
27.601719
29.524565
29.598475
30.034781
28.031468
28.008819
27.700663
28.068423
28.298497
27.202964
28.711557
28.775930
28.048754
29.859543
29.165745
28.654933
29.714704
28.629899
27.550459
##ZVALUE=250
1.469851
1.298785
1.849532
1.689792
1.774430
1.913905
2.526641
6.570816
27.268529
59.445500
147.278905
256.705880
388.282537
565.514565
681.709647
774.055719
769.835711
695.138574
593.639016
409.115553
275.755525
179.160833
110.565424
93.710423
107.458830
116.619468
133.276582
137.754679
131.733418
120.773911
106.490850
74.620843
57.503581
32.106638
21.217465
11.742711
7.857680
6.632805
5.827546
5.591512
5.452633
5.745888
6.102920
6.166697
5.852580
5.769730
6.102920
6.418824
5.896688
6.000996
6.507635
7.547736
6.413460
5.882978
7.072687
6.521940
6.242990
7.072687
7.878542
8.155704
8.526444
8.759499
9.062886
9.913445
10.413527
11.919737
12.065768
13.905764
14.312863
15.418530
17.572641
19.183755
20.924807
22.258759
23.128986
23.803711
25.077462
25.375485
26.648641
25.942922
26.441813
25.892854
27.615428
27.344823
26.144981
26.808977
26.636720
26.475787
26.073456
25.607944
27.427673
26.468635
27.652979
27.611852
27.008653
26.984811
##ZVALUE=255
1.270771
1.525879
1.285672
1.429915
1.529455
1.564622
1.418591
1.871586
2.464652
3.677607
18.103719
44.422746
92.181563
216.071606
339.455009
543.947816
692.767501
824.970603
869.337916
810.377002
701.038837
554.710627
344.533920
222.080946
120.466948
92.294812
86.357594
102.748871
125.033855
138.284564
144.144893
140.344501
127.919912
103.787780
80.847740
53.274632
37.204623
20.521879
12.800694
8.105636
6.773472
5.709529
6.115437
6.320477
6.067753
5.980730
6.242990
6.070733
6.187558
6.272793
5.424619
6.559491
6.280541
6.462932
6.932616
7.577538
6.809831
7.547736
7.573962
7.782578
7.737875
8.710623
8.708835
9.797812
8.646846
10.018945
11.350513
12.224913
13.391972
15.656948
14.771819
16.978979
19.717813
20.841956
20.739436
22.105575
23.244619
24.460554
25.198460
24.998784
24.590492
25.074482
24.662614
25.285482
25.209785
24.043918
24.604797
25.431514
25.519729
25.377870
27.023554
25.791526
26.161671
26.495457
26.125908
26.611686
##ZVALUE=260
1.344681
1.447797
1.539588
1.182556
1.327991
1.571774
1.506805
1.817942
1.632571
1.750588
1.998544
2.475977
9.362698
26.282668
74.811578
164.219737
389.619470
613.792539
935.968757
1016.140580
1016.140580
1016.140580
1016.140580
932.335854
716.272593
371.704698
226.316452
112.283826
81.742406
83.832741
105.378628
130.687952
141.180754
150.683522
147.509575
129.068494
108.335614
81.951618
58.748722
35.448670
23.503900
13.758540
9.686947
7.248521
6.444454
6.348491
6.246567
6.330609
6.689429
6.541610
6.352663
6.436706
6.355643
6.888509
6.752610
6.885529
6.910563
7.246733
8.047819
7.250905
8.012652
8.500814
8.288622
9.181499
9.169579
9.831786
10.684729
12.186766
12.925863
13.873577
14.293790
16.575456
18.703938
19.620657
21.699667
21.451712
21.939874
21.192431
22.078753
23.016930
22.029877
21.668673
23.442507
23.350716
22.765994
23.067594
23.413897
23.473501
23.455620
24.266839
24.465919
24.913549
24.694800
23.313761
24.870634
24.572611
##ZVALUE=265
1.191497
1.310706
1.421571
1.543760
1.433492
1.263618
1.564622
1.699924
1.759529
1.660585
1.789927
1.870990
1.984835
2.495646
4.592538
20.306706
49.942732
131.462812
244.427919
513.716936
792.945623
1016.140580
1016.140580
1016.140580
1016.140580
1016.140580
979.700685
691.975951
364.518762
211.305618
102.953911
76.794624
82.132816
111.624599
130.258799
150.566697
156.014562
149.973631
134.957433
106.957555
81.566572
56.444407
38.026571
20.540953
13.514757
8.082986
6.843805
5.614758
6.244779
6.317496
6.469488
6.666780
5.915761
6.608963
6.493926
6.978512
6.651878
6.941557
7.074475
7.454753
7.435679
8.268952
8.458495
8.482933
8.663535
9.100437
9.627938
10.386705
11.223555
12.822747
13.816953
14.762878
16.194582
16.594529
17.430782
18.713474
19.050837
19.565821
19.524693
19.364953
20.093918
20.947456
20.384789
21.056533
21.353960
21.719933
21.387935
21.772981
22.085905
22.110939
22.608638
22.573471
22.986531
23.075938
23.336411
22.196770
##ZVALUE=270
1.389980
1.276731
1.389980
1.369715
1.606941
1.479983
1.728535
1.718998
1.509786
1.934767
1.923442
1.475811
2.150536
1.787543
1.892447
2.241731
2.840757
9.516478
26.716590
87.543726
176.734924
309.077501
554.516912
747.043490
957.798958
1016.387939
1016.387939
973.078012
791.379809
616.936684
441.795588
240.535736
145.471692
77.517629
65.017939
86.077452
107.136965
132.390857
145.413876
154.579878
150.517821
130.843520
111.076832
79.369545
59.754848
34.329891
23.172498
13.557673
9.290576
6.561875
6.424785
6.937981
6.076694
6.336570
7.098913
6.977916
6.749630
6.883740
7.181764
7.468462
7.256866
7.839799
7.889867
8.511543
8.951426
9.367466
9.921789
10.326505
11.126995
11.611581
12.579560
13.993979
15.202761
15.468597
17.202497
17.515421
17.572641
18.052459
18.012524
18.313527
18.453598
19.289851
19.573569
19.373894
18.915534
19.448996
20.187497
20.250678
21.019578
20.732880
21.143556
21.822453
21.999478
22.414923
21.444559
23.002625
##ZVALUE=275
1.019835
1.062751
1.028776
0.874996
1.064539
1.095533
1.190901
1.224875
1.278520
1.364946
1.198649
1.136661
1.421571
1.435876
1.385808
1.536608
1.743436
1.860857
2.061725
4.355907
15.469790
61.371922
129.947662
293.571949
469.075441
714.968443
878.600478
1016.140580
1016.140580
1008.383036
891.001821
648.539662
462.774634
251.928568
146.944523
70.609450
49.506426
59.828758
78.867674
109.169483
129.141808
147.850513
154.046416
145.338774
132.815838
103.481412
83.527565
55.981874
38.727522
22.093654
14.660954
9.564757
7.380843
6.485581
6.264448
6.223917
7.197857
7.156730
7.056594
7.406473
7.442832
8.118749
7.699728
8.784533
8.806586
9.479523
9.457469
10.544658
10.865927
12.184978
13.198853
13.660789
14.710426
16.257763
16.690493
17.625690
17.564893
17.497540
17.857552
18.313527
18.174648
18.603802
18.750429
19.012690
18.993616
18.487573
19.078851
19.862652
19.383430
19.717813
19.673705
20.303726
19.898415
20.359755
20.596981
19.729733
##ZVALUE=280
1.111627
1.056790
0.918508
0.893474
1.052618
0.952482
1.241565
1.122952
1.244545
1.264811
1.286864
1.332760
1.320839
1.533628
1.733899
1.714826
1.613498
1.787543
1.845956
1.687407
1.958609
2.551675
14.428496
58.407784
180.995464
321.833491
588.922501
867.589712
1016.165614
1016.165614
1016.165614
1016.165614
1016.165614
899.279714
640.560985
345.008969
202.216506
90.442896
51.465631
42.450428
54.998994
80.232620
103.607774
131.101608
143.875480
149.122477
144.555569
125.253797
107.795596
78.022480
59.520006
36.671758
24.916530
14.168620
9.871721
8.016825
6.958842
7.165670
7.281899
7.497668
7.503629
8.024573
8.573532
8.783937
8.860826
9.860992
10.645986
10.517836
12.057424
12.291670
13.962984
14.413595
14.895797
15.929937
16.183853
17.345548
17.032623
17.441511
17.553568
17.907619
18.034577
17.637610
18.806458
18.719435
18.757582
19.210577
19.073486
19.259453
19.263625
18.697977
19.022822
19.335747
20.298958
19.714832
19.241571
19.982457
##ZVALUE=285
1.105666
1.178980
1.043677
0.933409
1.046658
1.126528
0.963807
1.167655
1.174808
1.381636
1.337528
1.221895
1.255870
1.153946
1.377463
1.385808
1.608729
1.632571
1.860857
1.877546
1.875758
2.162457
2.578497
2.627969
6.799698
25.803447
114.114881
248.584747
521.795750
808.994770
1016.140580
1016.140580
1016.140580
1016.140580
1016.140580
1016.140580
934.986472
534.018874
307.091475
133.524537
67.837834
34.019947
35.267472
53.592920
73.796511
103.946924
122.558475
139.459968
145.687461
140.407681
128.067732
105.480552
83.839893
59.086680
41.338801
24.494529
17.003417
10.575652
8.805990
8.538961
8.347631
8.310676
9.173751
9.325743
9.904504
10.643601
10.728836
11.594892
12.394786
12.763739
14.023781
14.419556
16.255975
16.273856
16.993880
16.695857
16.662478
18.191934
17.407537
17.884970
17.715693
18.456578
18.075705
18.253922
19.213557
18.482804
18.294454
18.858910
19.029975
19.081831
19.239783
19.250512
18.817782
19.160509
18.929839
19.534826
##ZVALUE=290
0.944734
0.877976
1.205802
1.036525
0.879765
1.188517
1.120567
0.995994
1.060963
1.223683
1.089573
1.265407
1.350641
1.290441
1.281500
1.213551
1.494884
1.642704
1.429915
1.567602
1.623631
1.794696
1.963973
1.908541
2.414584
2.422929
3.581643
10.198951
46.547651
121.085644
318.277478
555.489659
862.597823
1016.140580
1016.140580
1016.140580
1016.140580
1016.140580
1016.140580
744.142532
471.960902
222.369432
105.987787
39.497614
26.637912
34.656525
48.640966
72.681904
91.896653
118.732452
133.012533
141.737461
140.618682
125.878453
106.490850
78.892708
59.034824
38.908720
26.159883
17.022491
12.539625
10.115504
9.747744
9.723902
9.680986
10.415912
10.810494
11.650920
12.430549
13.619661
14.277697
15.226603
14.945865
17.036796
16.905665
17.727613
18.095970
17.810464
17.470717
18.166900
17.881989
18.144846
18.564463
18.835664
18.517971
18.593669
18.699765
18.777847
18.763542
19.215941
18.777847
18.672943
19.199848
18.353462
18.792748
19.107461
##ZVALUE=295
1.060963
0.863671
0.830889
1.063943
1.072884
0.943542
1.088977
0.931621
0.977516
0.877976
1.017451
1.225471
1.034737
1.119971
1.146793
1.214743
1.239777
1.224875
1.290441
1.229644
1.277924
1.218915
1.408458
1.491904
1.721978
2.014637
1.776814
2.081990
2.265573
3.986955
13.719797
59.805512
143.172741
355.886817
587.631464
945.964456
1016.137600
1016.137600
1016.137600
1016.137600
1016.137600
764.389634
525.084734
279.467702
152.392983
57.020783
27.844906
22.327900
28.948784
46.775937
64.029694
89.518428
109.000802
127.088428
134.846568
131.069422
121.509433
99.649429
80.198646
56.469440
41.211843
25.639534
19.078851
13.392568
11.082888
11.224747
10.736585
11.501908
12.317896
12.861490
14.016628
14.552474
15.234947
16.129613
16.574860
17.480850
17.001629
17.644763
17.607808
18.675923
18.490553
18.584728
18.415451
18.868446
19.083619
19.286871
18.809438
19.432902
19.313693
19.729733
18.981695
19.071698
18.833876
18.113852
18.600821
18.685460
##ZVALUE=300
0.956655
0.813603
0.845790
0.945926
0.986457
0.796914
0.869632
0.769496
0.963807
1.062751
0.871420
0.943542
0.980496
0.925660
1.038909
1.122952
1.010895
0.993609
1.094937
1.051426
1.076460
1.298785
1.280904
1.391768
1.441836
1.582503
1.408458
1.783967
1.573563
1.825690
2.078414
2.323389
6.269813
35.383701
89.471936
230.238438
400.239825
688.079596
918.963552
1016.140580
1016.140580
1016.140580
1016.140580
817.213655
594.963431
336.434841
202.154517
89.672804
42.338967
18.578768
17.389655
27.761459
38.715601
60.445666
79.659820
105.607510
120.423436
128.415823
129.071474
116.504431
102.868676
76.546669
60.223937
41.416883
29.287934
19.621849
15.333891
13.632774
13.130903
13.432503
13.973713
15.025735
15.320778
16.538501
16.511679
17.354488
17.558932
17.799735
18.145442
18.802881
18.332601
18.533468
19.506812
19.201636
19.287467
19.646883
19.444823
19.286871
19.134879
19.302964
19.292831
18.770695
19.181967
18.923879
18.756986
19.541979
##ZVALUE=305
0.930429
0.786781
0.748634
0.772476
0.744462
0.665784
0.702739
0.724792
0.686646
0.736713
0.936985
0.899434
0.756979
0.930429
0.902414
0.987649
0.931621
0.838637
0.927448
0.985861
0.882745
1.032948
1.160502
1.047850
1.227856
1.315475
1.296997
1.369715
1.314878
1.457930
1.790524
1.843572
1.898408
2.099872
3.683567
20.211935
58.515668
168.676972
305.157900
556.966662
782.983899
1016.100645
1016.100645
1016.100645
1016.100645
926.702023
719.745755
450.267792
276.327729
126.050711
59.907436
22.002459
13.707876
16.947985
24.898648
41.151643
56.091547
79.617500
98.147988
115.003586
122.973919
120.888948
113.965869
95.221996
78.444481
56.989789
43.692589
29.474497
21.970868
17.168522
15.619993
15.098453
15.468597
16.336441
16.828775
17.506480
17.745495
17.867684
17.921925
19.017458
18.809438
19.686818
19.613504
20.063519
20.479560
19.832850
19.974709
20.595789
20.091534
19.987822
20.261407
19.713640
19.904971
19.050837
19.044876
18.618703
##ZVALUE=310
0.832677
0.792742
0.838637
0.854731
0.841618
0.743866
0.759959
0.906587
0.889897
1.046658
0.848770
0.855923
0.898838
0.909567
0.760555
0.877976
0.886917
0.928640
0.900626
0.943542
0.991821
1.091957
0.992417
1.056790
1.212955
1.257658
1.242757
1.245737
1.260638
1.341701
1.324415
1.317859
1.578927
1.679659
1.852512
2.231598
2.489686
9.554625
31.769872
108.383894
216.588974
443.258882
671.349764
978.385806
1016.140580
1016.140580
1016.140580
1016.140580
902.303457
606.501698
402.856469
200.831890
103.680491
37.736893
16.421676
12.883544
15.265942
24.211407
34.136772
51.729679
68.352818
92.241764
104.981661
114.482641
117.564797
108.103752
96.321702
76.355934
60.484409
43.317676
33.685565
24.342537
20.535588
17.885566
17.842650
17.872453
18.311739
18.702745
18.724799
19.259453
19.432902
20.112991
20.371675
20.560622
20.235777
20.905733
20.616651
20.585656
20.547509
20.294785
20.437837
19.981861
19.681454
19.799471
19.322634
19.579530
##ZVALUE=315
0.839829
0.709891
0.866652
0.807643
0.877976
0.803471
0.909567
0.766516
0.953674
0.781417
0.858903
0.858903
0.993609
0.902414
0.826716
0.879765
0.855923
0.923872
0.873804
1.029968
0.878572
0.950694
1.015663
1.093745
1.191497
1.049638
1.221895
1.238585
1.177788
1.163483
1.302958
1.567602
1.384616
1.477599
1.691580
1.713634
1.689792
1.870990
2.085567
4.354715
16.251802
68.380833
150.598884
349.871516
575.016737
936.823487
1016.156673
1016.156673
1016.156673
1016.156673
1016.156673
807.162523
563.105941
295.481682
158.683658
56.904554
23.115873
11.890531
11.814833
15.568733
21.827817
35.256743
47.827959
67.629814
84.287524
102.917552
110.459924
111.956000
106.603503
91.438890
78.279972
58.893561
46.538711
33.329725
25.880933
21.714568
20.341873
19.493699
19.242764
19.718409
19.782782
20.013452
20.694733
20.994544
21.130443
21.213889
20.710826
21.125674
21.289587
20.939708
20.674467
20.212531
20.653605
20.535588
20.177960
20.027757
##ZVALUE=320
0.713468
0.965595
0.842810
0.743866
0.921488
0.835657
0.745654
0.775456
0.866652
0.781417
0.856519
0.702739
0.835657
0.687838
0.825524
1.062751
0.989437
0.997782
0.999570
1.014471
0.985861
0.891685
0.906587
1.165867
0.997782
0.954866
1.074672
0.881553
1.072884
1.274943
1.152754
1.170635
1.244545
1.303554
1.491904
1.392961
1.733899
1.722574
1.766682
2.005696
1.945496
2.728701
7.528663
38.725734
105.208755
295.976400
500.078797
847.577453
1016.140580
1016.140580
1016.140580
1016.140580
1016.140580
978.309512
709.081888
381.571651
214.004517
88.057518
38.803816
14.081597
10.999441
11.975765
14.728904
21.138787
30.248761
46.787858
61.669946
81.200600
95.350742
107.256770
108.467937
102.248788
92.376471
74.571967
60.443878
44.530630
35.265684
26.725531
23.275614
20.757914
20.412803
20.489693
20.556450
21.133423
21.262765
21.158457
21.148920
20.898581
21.382570
21.043420
20.877719
20.918846
21.422505
20.581484
20.982623
20.488501
##ZVALUE=325
0.794530
0.829697
0.751615
0.839829
0.820756
0.887513
0.846982
0.925660
0.891685
0.981688
0.882745
0.892878
0.638962
0.755787
0.720620
0.755787
0.751615
0.871420
0.833869
0.960827
0.902414
1.037717
1.008511
0.984669
1.041889
1.117587
1.077652
1.092553
1.189709
0.988841
1.023412
1.171827
1.186728
1.140833
1.461506
1.504421
1.552701
1.525879
1.512766
1.743436
1.877546
2.074838
2.030730
2.532601
4.732609
27.021766
72.320700
207.426548
403.635502
813.214779
1016.140580
1016.140580
1016.140580
1016.140580
1016.140580
1016.140580
866.481066
490.723848
280.445814
118.493438
56.498647
19.841790
11.929870
10.811687
11.957884
16.095638
21.277666
32.208562
44.390559
63.529611
78.255534
93.640685
102.290511
103.996992
98.698735
85.556507
72.498918
56.564808
44.988990
33.433437
27.579665
23.848414
21.695495
21.093488
21.223426
21.282434
21.549463
21.219850
21.151900
21.108985
21.618605
21.011829
20.538568
20.509958
20.277500
20.296574
##ZVALUE=330
0.761747
0.784993
0.688434
0.672936
0.738502
0.588894
0.886917
0.823736
0.813603
0.941753
0.776649
0.743866
0.878572
0.732541
0.752807
0.807643
0.869632
0.939965
0.987649
0.784993
0.860691
0.872612
1.032948
0.858903
0.998974
0.911951
0.918508
0.966787
1.016855
0.969768
1.032948
1.155734
1.236796
1.068711
1.171827
1.247525
1.113415
1.276731
1.288652
1.521707
1.553893
1.518726
1.738667
2.002716
2.105832
2.354980
3.155470
13.717413
41.626692
131.062865
250.867009
520.148873
793.709755
1016.140580
1016.140580
1016.140580
1016.140580
1016.140580
1016.140580
705.527067
431.577563
179.699659
84.814429
29.948950
14.701486
11.175871
11.567473
12.825727
15.678406
22.261739
30.536652
45.545697
58.787465
77.173710
88.766813
97.687840
98.555684
92.480779
83.500743
68.275928
56.497455
41.389465
34.788847
28.450489
24.287701
22.262931
21.836758
20.837784
20.812750
20.536780
20.784736
20.897985
20.115972
20.807981
20.107627
20.275712
##ZVALUE=335
0.735521
0.664592
0.648499
0.711679
0.761747
0.671744
0.743866
0.800490
0.811815
0.554919
0.631809
0.680685
0.787973
0.674725
0.796914
0.739694
0.841618
0.795722
0.605583
0.864863
0.874996
0.847578
0.966787
0.801682
0.912547
1.006722
1.047850
0.912547
0.972748
0.859499
0.895858
0.900626
0.969768
0.985861
1.121759
1.078844
0.948906
1.051426
1.117587
1.150966
1.263618
1.382828
1.375675
1.442432
1.514554
1.549721
1.594424
1.917481
2.285838
5.757809
22.305846
87.997913
184.111595
406.473875
632.556677
966.760516
1016.134620
1016.134620
1016.134620
1016.134620
993.973017
683.758855
461.214781
232.921839
119.390488
41.149855
18.800497
11.510849
10.594726
12.024641
13.250709
16.227961
21.153688
31.995773
42.593479
58.864951
71.325898
84.042549
92.098713
94.155669
89.456439
76.856613
67.869425
55.006742
44.515729
33.968687
28.748512
24.071932
21.658540
20.424724
20.330548
20.216703
20.142794
19.748807
20.039678
19.805431
##ZVALUE=340
0.689626
0.843406
0.664592
0.775456
0.816584
0.746846
0.586510
0.620484
0.788569
0.631809
0.719428
0.750422
0.914931
0.813603
0.739694
0.740886
0.912547
0.841618
0.808835
0.797510
0.842810
0.819564
0.800490
0.936985
0.870824
0.900626
0.955462
0.980496
0.954866
0.895858
1.130700
0.975728
0.975728
0.956655
1.069903
1.026988
0.882745
0.951886
0.988841
1.111627
1.144409
1.193881
1.261830
1.331568
1.403689
1.448989
1.478791
1.536608
1.894832
1.971722
1.974702
3.003478
9.178519
46.968460
119.842887
307.073593
526.731014
870.929956
1016.140580
1016.140580
1016.140580
1016.140580
1016.140580
846.380591
571.868420
285.078883
156.682730
62.988997
26.140809
12.625456
11.432767
12.072921
12.495518
14.171600
16.216636
23.037791
29.430985
42.113662
54.084659
69.963932
79.962611
87.223649
89.388490
83.847642
77.448487
64.729452
53.604841
41.794777
34.482479
27.716756
23.615956
20.616651
20.065904
19.361973
19.936562
19.504428
##ZVALUE=345
0.585914
0.635982
0.718832
0.818968
0.750422
0.726581
0.762939
0.637770
0.892878
0.701547
0.743866
0.780821
0.647902
0.606775
0.650883
0.736713
0.467896
0.769496
0.642538
0.795722
0.722408
0.608563
0.606775
0.761747
0.742674
0.639558
0.860691
0.768900
0.812411
1.032948
0.791550
0.792742
0.830889
0.924468
0.955462
0.921488
0.909567
1.075864
1.033545
0.971556
1.210570
1.143813
1.054406
1.220703
1.252890
1.308918
1.302958
1.315475
1.239777
1.490712
1.602769
1.898408
1.999736
2.265573
4.669428
27.248859
76.157451
209.466815
371.199846
664.633512
910.210609
1016.140580
1016.140580
1016.140580
1016.140580
907.055736
662.800074
379.682779
206.776857
79.183578
36.232471
15.412569
11.573434
11.587739
11.811852
12.393594
13.240576
16.124845
20.104647
29.320717
38.175583
52.242875
62.613487
74.094534
80.036521
81.787705
78.886747
71.653724
63.417554
52.188635
42.868853
32.694936
27.598739
23.669600
21.413565
19.847751
##ZVALUE=350
0.726581
0.742674
0.695586
0.740886
0.778437
0.722408
0.819564
0.703931
0.821948
0.797510
0.775456
0.774860
0.786781
0.746846
0.733733
0.755787
0.889897
0.821948
0.763535
0.706911
0.676513
0.874996
0.712872
0.708699
0.718832
0.799894
0.825524
0.780821
0.722408
0.860691
0.926852
0.864863
0.834465
1.050830
0.908971
0.747442
1.022816
0.976920
0.883937
1.036525
0.969768
1.146793
1.052618
1.198649
1.187921
1.193881
1.195669
1.322627
1.265407
1.222491
1.340508
1.410842
1.678467
1.745820
1.765490
2.015829
2.943873
16.436577
48.637986
143.752694
274.427533
553.228855
804.050565
1016.140580
1016.140580
1016.140580
1016.140580
1016.140580
895.354748
519.787669
301.769972
125.369430
55.045485
18.625855
12.106895
10.800958
11.188984
11.232495
11.891723
13.089776
15.521646
20.549893
26.164651
35.290718
43.936968
56.799650
65.465569
73.147416
75.458884
74.225664
68.823695
58.325529
50.044656
39.512515
33.408999
26.624799
##ZVALUE=355
0.728965
0.710487
0.574589
0.705719
0.672936
0.770688
0.729561
0.673532
0.802875
0.708699
0.687838
0.699759
0.717640
0.779629
0.734925
0.756979
0.792742
0.826716
0.904799
0.896454
0.820756
0.792742
0.927448
0.824928
0.805855
0.907779
0.925660
1.038909
0.825524
0.920892
0.927448
0.776649
0.742674
0.865459
0.919700
0.916719
0.799894
0.851750
0.969768
1.079440
1.039505
1.130700
1.178980
0.999570
1.136661
1.081824
0.982881
1.163483
1.090765
1.237988
1.257658
1.398921
1.259446
1.388788
1.640916
1.552701
1.740456
1.960993
2.310872
6.115437
23.015738
88.873506
183.229446
388.865471
609.419942
940.709710
1016.140580
1016.140580
1016.140580
1016.140580
931.552649
605.168939
363.702774
151.796937
71.508884
25.203824
13.460517
10.224581
10.227561
10.550618
10.834932
11.363626
12.499690
14.263988
17.307997
23.680925
30.167699
40.975809
49.151778
59.433579
65.378547
68.775415
69.114566
62.782764
57.389736
47.854781
##ZVALUE=360
0.834465
0.773668
0.756979
0.665784
0.666976
0.578761
0.695586
0.657439
0.672936
0.614524
0.764728
0.652671
0.899434
0.708699
0.828505
0.800490
0.863671
0.733733
0.706911
0.773668
0.909567
0.926852
0.781417
0.769496
0.729561
0.858903
0.789762
0.625849
0.953674
0.908971
0.850558
0.871420
0.861883
0.947714
0.713468
0.789762
0.751615
0.891685
0.771880
1.024604
1.005530
1.161695
1.030564
1.194477
1.048446
1.026988
1.142621
1.051426
1.132488
1.249909
1.219511
1.314878
1.352429
1.288652
1.241565
1.499653
1.529455
1.708865
1.828671
1.962781
2.220869
3.159642
9.046793
41.353703
101.801753
263.788700
449.661016
751.894712
995.545983
1016.140580
1016.140580
1016.140580
1003.613472
700.742006
465.143919
237.054825
119.591951
39.240718
16.580820
10.050535
9.657741
10.115504
9.993911
10.391474
10.684729
11.345744
12.627840
15.713573
19.333959
26.162863
33.604503
44.394732
52.044988
60.318708
63.613653
63.986778
##ZVALUE=365
0.733733
0.778437
0.628829
0.623465
0.801682
0.557899
0.722408
0.710487
0.641942
0.717640
0.800490
0.810623
0.857711
0.852942
0.862479
0.948906
0.885725
0.920892
0.872612
0.714660
0.675917
0.829697
0.748634
0.739694
0.880957
0.895858
0.916719
0.874996
0.765920
0.697970
0.836849
0.958443
0.796914
0.921488
0.857711
0.873804
0.867844
0.953674
0.965595
0.999570
0.979900
0.940561
1.040697
0.940561
0.913739
1.068711
1.022816
1.047850
1.066923
1.105666
0.995994
1.045465
1.048446
1.059771
1.281500
1.418591
1.266599
1.424551
1.443624
1.812577
1.754761
2.069473
2.224445
2.597570
4.433393
24.533868
70.105791
193.096995
366.673470
701.774955
971.845984
1016.140580
1016.140580
1016.140580
1016.140580
888.469815
649.531484
371.691585
209.308863
78.518987
30.926466
11.030436
9.315610
9.232759
9.180903
9.128451
9.375811
9.582639
10.023713
11.557937
12.888908
17.285943
22.305846
30.090809
36.685467
45.912862
##ZVALUE=370
0.799894
0.741482
0.812411
0.694990
0.837445
0.715852
0.788569
0.668764
0.759959
0.723600
0.730753
0.820756
0.657439
0.631809
0.634789
0.698566
0.762939
0.787973
0.731945
0.680685
0.621676
0.736713
0.663996
0.650883
0.654459
0.740886
0.777841
0.911951
0.847578
0.841618
0.537634
0.796914
0.783801
0.809431
0.791550
0.876784
0.916719
1.077652
0.842810
0.856519
0.861883
0.939965
0.953674
0.913739
0.911951
0.985861
1.148582
1.005530
1.013875
0.863671
0.963807
0.951886
1.093745
1.030564
1.037717
1.204610
1.100898
1.127720
1.159906
1.394749
1.425743
1.623631
1.724958
1.790524
1.953840
2.025962
3.029704
12.424588
39.833784
131.774545
257.596970
511.283875
761.719942
1016.150713
1016.150713
1016.150713
1016.150713
921.729803
677.565932
378.987789
215.075016
88.268518
42.404532
15.919805
9.207726
8.369684
8.016825
8.344650
8.431673
8.366704
8.379817
9.201765
9.735823
11.996627
14.570951
19.666553
##ZVALUE=375
0.630617
0.667572
0.628829
0.548959
0.701547
0.614524
0.753999
0.656843
0.648499
0.526905
0.490546
0.506639
0.718832
0.614524
0.696778
0.657439
0.706911
0.665784
0.574589
0.586510
0.730753
0.593662
0.677705
0.583529
0.702739
0.741482
0.678897
0.852942
0.806451
0.744462
0.818968
0.711679
0.784993
0.674725
0.763535
0.668764
0.702739
0.708699
0.755787
0.780821
0.844598
0.919700
0.613928
0.721812
0.841618
0.746846
0.877976
1.019835
0.902414
0.943542
0.942945
0.927448
1.042485
1.045465
1.089573
1.140833
1.083612
1.120567
1.200438
1.157522
1.078844
1.301765
1.341701
1.337528
1.266599
1.306534
1.725554
1.965761
2.217889
6.203651
21.295547
75.391531
162.365437
370.134711
587.096810
905.615687
1016.140580
1016.140580
1016.140580
986.271501
758.975744
440.471768
271.744728
129.959583
63.988566
20.982623
10.113716
7.560849
7.267594
7.531643
7.512569
7.747412
7.815957
8.145571
8.354783
9.125471
##ZVALUE=380
0.592470
0.566840
0.574589
0.737906
0.652671
0.640750
0.549555
0.720620
0.622869
0.666976
0.667572
0.520945
0.735521
0.495911
0.584722
0.614524
0.647902
0.534654
0.709891
0.619888
0.532866
0.462532
0.645518
0.722408
0.644922
0.705719
0.614524
0.747442
0.792742
0.783801
0.854731
0.736713
0.813603
0.787973
0.734925
0.847578
0.820756
0.705719
0.793934
0.886917
0.853539
0.746846
0.816584
0.778437
0.640750
0.818968
0.889897
0.818968
0.764728
0.846982
0.721812
0.806451
0.887513
0.929832
1.090765
0.816584
0.786781
0.882745
1.119971
0.983477
1.104474
1.074672
1.012683
1.161695
1.068711
1.290441
1.347661
1.610518
1.599789
1.828671
2.053976
3.428459
11.550784
55.983663
129.079819
305.593610
496.281981
777.894855
977.263451
1016.140580
1016.140580
961.017609
778.710842
508.898497
332.886577
162.772536
84.680915
30.810833
13.813972
7.858872
7.054806
6.768703
7.007718
7.100701
6.995797
7.141829
##ZVALUE=385
0.538826
0.528693
0.699759
0.702739
0.569820
0.630617
0.603795
0.546575
0.639558
0.529885
0.631809
0.696778
0.699759
0.531673
0.673532
0.710487
0.747442
0.611544
0.631809
0.735521
0.742674
0.638962
0.624657
0.759959
0.712872
0.686646
0.659823
0.708699
0.553727
0.647902
0.691414
0.777841
0.704527
0.602603
0.670552
0.780821
0.829697
0.803471
0.822544
0.809431
0.821948
0.826716
0.760555
0.571609
0.835657
0.913739
0.716448
0.819564
0.728965
0.807643
0.661612
0.609756
0.830889
0.914931
0.932813
0.929832
0.894666
1.007915
0.958443
0.897646
1.204610
1.162887
1.082420
1.176596
1.058578
1.252890
1.307726
1.520514
1.651645
1.656413
1.822710
2.050996
2.104640
2.369881
6.713867
24.095774
90.417862
202.815533
454.684496
714.587569
1016.140580
1016.140580
1016.140580
1016.140580
1016.140580
834.913850
495.400429
305.693746
130.998492
62.411427
21.232963
9.289980
6.661415
6.289482
6.419420
6.360412
##ZVALUE=390
0.445843
0.616908
0.611544
0.681877
0.691414
0.748634
0.757575
0.627637
0.771880
0.619888
0.527501
0.418425
0.548959
0.581741
0.635982
0.655651
0.586510
0.658631
0.561476
0.678897
0.581741
0.603795
0.647902
0.658631
0.608563
0.619888
0.662804
0.541806
0.641942
0.502467
0.735521
0.840425
0.753999
0.772476
0.854731
0.800490
0.560880
0.909567
0.771880
0.745654
0.618696
0.724792
0.746846
0.725985
0.722408
0.679493
0.831485
0.775456
0.705719
0.611544
0.701547
0.840425
0.769496
0.777841
0.877976
0.915527
0.715852
0.897646
0.909567
0.957847
1.130700
0.962615
1.036525
1.034737
1.091957
1.029968
1.124740
1.261830
1.341701
1.346469
1.338720
1.537800
1.718998
1.700521
1.729727
1.953840
3.538728
21.424890
65.166950
185.353756
336.042047
609.081984
814.093947
1013.794541
1016.140580
1016.140580
1016.140580
827.011466
625.870824
374.927521
213.584900
87.210536
39.132833
12.009740
6.862879
6.020665
##ZVALUE=395
0.608563
0.432730
0.650883
0.596642
0.518560
0.566840
0.678897
0.546575
0.527501
0.607967
0.663996
0.633597
0.483990
0.646710
0.599623
0.630617
0.709891
0.671744
0.662804
0.596642
0.519753
0.629425
0.496507
0.461936
0.662804
0.698566
0.732541
0.602603
0.747442
0.727773
0.602603
0.646710
0.767708
0.669956
0.762939
0.630617
0.669956
0.531673
0.789762
0.692606
0.731945
0.837445
0.868440
0.713468
0.786781
0.834465
0.886917
0.784993
0.837445
0.889897
0.512600
0.711679
0.626445
0.668764
0.813603
0.828505
0.919700
0.837445
0.696778
0.833869
0.872612
0.823736
0.831485
1.068711
1.095533
1.176000
1.143813
1.270771
1.285672
1.403689
1.344681
1.547933
1.628995
1.553893
1.623631
1.811981
1.720786
1.814961
2.307892
11.736751
44.603944
150.609612
283.898711
528.139472
739.221573
996.570587
1016.140580
1016.140580
1016.140580
985.683799
764.283538
463.083982
290.639997
138.253570
66.964626
21.638870
##ZVALUE=400
0.644922
0.595450
0.530481
0.527501
0.635982
0.660419
0.820756
0.654459
0.623465
0.592470
0.589490
0.565648
0.593662
0.570416
0.803471
0.545979
0.468493
0.715852
0.649691
0.636578
0.593662
0.541806
0.517964
0.514984
0.655651
0.540614
0.709891
0.584722
0.691414
0.639558
0.684857
0.763535
0.741482
0.707507
0.714660
0.609756
0.565648
0.786781
0.627637
0.674725
0.693798
0.902414
0.755787
0.701547
0.745654
0.720620
0.765920
0.661612
0.719428
0.746846
0.683665
0.722408
0.765920
0.727773
0.758767
0.893474
0.847578
0.768900
0.808835
0.860691
0.915527
0.867844
0.854731
1.102686
1.117587
1.236796
1.124740
1.235604
1.228452
1.245737
1.319647
1.273751
1.433492
1.585484
1.548529
1.523495
1.485944
1.395941
1.602769
1.665950
2.243519
5.987883
22.349954
84.655881
184.713006
403.789878
627.811551
929.811001
1016.140580
1016.140580
1016.140580
983.930826
789.531469
525.223613
343.052745
171.673894
##END
